# File: 20-05-31T225004.ast
# NOTEA     = None Attached.  RTLSDR Dongle Test
# NOTEB     = Spectral Integration
# OBSERVER  = Science Aficionado
# DEVICE    = rtlsdr=0
# DATADIR   = ../data/
# SITE      = None Attached.  RTLSDR Dongle Test
# CITY      = Green Bank
# REGION    = West Virginia
# COUNTRY   = US
# TELTYPE   = Bubble Wrap  Horn
# FRAME     = TOPO
# GAIN1     = 49.0
# GAIN2     = 11.0
# GAIN3     = 11.0
# GAIN4     = 0.0
# Count     = 10000
# CenterFreq= 1400000000.0
# Bandwidth = 2500000.0
# Duration  = 41.955148
# DeltaX    = 5859.375
# TSYS      = 200.0
# TRX       = 100.0
# TRMS      = 2.0
# TINT      = 1.0
# KPERC     = 100.0
# GAINFACT  = 1.0
# BUNIT     = Counts
# NCHAN     = 1024
# NSPEC     = 1
# NTIME     = 0
# NSAMPLES  = 0
# EPEAK     = 4.10875183718
# ERMS      = 0.995973393526
# EMJD      = 58568.808999981004 
# REFCHAN   = 512.0
# REFSAMPL  = 256.0
# NAVE      = 100
# NMEDIAN   = 1024
# Fft_rate  = 5000
# UTC       = 2020-05-31 22:50:04.699647
# SECONDS   =       0.0000000000 
# LST       = 10:10:16.240
# AZ        = 180.0
# EL        = 90.0
# TELLON    = -79:50:22.920
# TELLAT    = +38:25:59.160
# RA        = 10:07:52.020
# DEC       = +38:37:47.000
# GALLON    = 183:41:16.30
# GALLAT    = +54:07:07.30
# ALT_SUN   = +18:40:11.4
# AZ_SUN    = +283:49:28.1
# ETAA      = 0.8
# ETAB      = 0.99
# POLANGLE  = 0.0
# TELSIZEAM = 1.0
# TELSIZEBM = 1.0
# AST_VERS  = 05.01
0000 1398751220 6.3206
0001 1398753662 6.2144
0002 1398756103 6.3620
0003 1398758544 6.4247
0004 1398760986 6.3791
0005 1398763427 6.4465
0006 1398765869 6.3034
0007 1398768310 6.2469
0008 1398770751 6.2831
0009 1398773193 6.3498
0010 1398775634 6.5114
0011 1398778076 6.4415
0012 1398780517 6.3751
0013 1398782958 6.4129
0014 1398785400 6.3895
0015 1398787841 6.7297
0016 1398790283 6.5761
0017 1398792724 6.5734
0018 1398795166 6.9932
0019 1398797607 10.3610
0020 1398800048 7.8718
0021 1398802490 6.8294
0022 1398804931 6.7650
0023 1398807373 6.8624
0024 1398809814 6.8549
0025 1398812255 6.9740
0026 1398814697 7.0544
0027 1398817138 7.1123
0028 1398819580 7.1327
0029 1398822021 7.2655
0030 1398824462 7.2211
0031 1398826904 7.3443
0032 1398829345 7.4307
0033 1398831787 7.4444
0034 1398834228 7.6444
0035 1398836669 7.9543
0036 1398839111 7.6913
0037 1398841552 7.8293
0038 1398843994 7.9276
0039 1398846435 8.0267
0040 1398848876 8.1412
0041 1398851318 8.2156
0042 1398853759 8.1485
0043 1398856201 8.3291
0044 1398858642 8.4377
0045 1398861083 8.4728
0046 1398863525 8.6879
0047 1398865966 8.8736
0048 1398868408 8.9437
0049 1398870849 9.0229
0050 1398873291 9.2642
0051 1398875732 9.1616
0052 1398878173 9.4346
0053 1398880615 9.6197
0054 1398883056 9.6172
0055 1398885498 9.8459
0056 1398887939 10.2886
0057 1398890380 10.0025
0058 1398892822 10.0972
0059 1398895263 10.9509
0060 1398897705 11.1415
0061 1398900146 10.6302
0062 1398902587 10.6429
0063 1398905029 10.8061
0064 1398907470 10.9672
0065 1398909912 11.1833
0066 1398912353 11.4031
0067 1398914794 11.8232
0068 1398917236 11.5257
0069 1398919677 11.8080
0070 1398922119 11.9028
0071 1398924560 12.0560
0072 1398927001 12.4271
0073 1398929443 12.4778
0074 1398931884 12.5172
0075 1398934326 12.5703
0076 1398936767 12.6889
0077 1398939208 13.0069
0078 1398941650 13.3331
0079 1398944091 13.1761
0080 1398946533 13.4914
0081 1398948974 13.7139
0082 1398951416 13.6151
0083 1398953857 13.7036
0084 1398956298 14.4331
0085 1398958740 14.4394
0086 1398961181 14.3952
0087 1398963623 14.6728
0088 1398966064 14.7763
0089 1398968505 14.8326
0090 1398970947 15.1986
0091 1398973388 15.3555
0092 1398975830 15.3002
0093 1398978271 15.7460
0094 1398980712 15.8307
0095 1398983154 15.4699
0096 1398985595 16.1023
0097 1398988037 16.4952
0098 1398990478 16.2430
0099 1398992919 16.4919
0100 1398995361 16.6832
0101 1398997802 16.5401
0102 1399000244 16.9239
0103 1399002685 17.2775
0104 1399005126 17.1870
0105 1399007568 17.5938
0106 1399010009 17.9070
0107 1399012451 17.5982
0108 1399014892 17.8106
0109 1399017333 19.2446
0110 1399019775 18.6011
0111 1399022216 18.5738
0112 1399024658 18.9482
0113 1399027099 18.7049
0114 1399029541 18.9292
0115 1399031982 18.9233
0116 1399034423 19.1878
0117 1399036865 19.2749
0118 1399039306 19.6016
0119 1399041748 19.6001
0120 1399044189 19.6144
0121 1399046630 20.0094
0122 1399049072 20.0942
0123 1399051513 20.0209
0124 1399053955 20.5869
0125 1399056396 20.9139
0126 1399058837 20.7089
0127 1399061279 20.9405
0128 1399063720 21.4894
0129 1399066162 20.9027
0130 1399068603 21.3749
0131 1399071044 21.6782
0132 1399073486 21.3405
0133 1399075927 21.7692
0134 1399078369 22.5713
0135 1399080810 21.9204
0136 1399083251 21.7716
0137 1399085693 22.4204
0138 1399088134 22.8002
0139 1399090576 22.4199
0140 1399093017 23.1664
0141 1399095458 23.6845
0142 1399097900 22.9121
0143 1399100341 23.2134
0144 1399102783 23.6473
0145 1399105224 23.7150
0146 1399107666 23.5053
0147 1399110107 23.3891
0148 1399112548 23.6075
0149 1399114990 23.8589
0150 1399117431 24.1251
0151 1399119873 24.0472
0152 1399122314 24.2933
0153 1399124755 24.2829
0154 1399127197 24.0347
0155 1399129638 24.9872
0156 1399132080 24.8399
0157 1399134521 26.6713
0158 1399136962 27.0985
0159 1399139404 26.4488
0160 1399141845 25.1456
0161 1399144287 25.2719
0162 1399146728 25.3564
0163 1399149169 25.2698
0164 1399151611 25.4296
0165 1399154052 25.9956
0166 1399156494 25.6625
0167 1399158935 25.7003
0168 1399161376 25.8422
0169 1399163818 25.4122
0170 1399166259 26.0796
0171 1399168701 26.5275
0172 1399171142 26.0885
0173 1399173583 26.2533
0174 1399176025 26.2505
0175 1399178466 26.4974
0176 1399180908 26.3725
0177 1399183349 27.0381
0178 1399185791 26.7792
0179 1399188232 26.8413
0180 1399190673 27.9078
0181 1399193115 27.2933
0182 1399195556 26.8482
0183 1399197998 27.7307
0184 1399200439 28.8090
0185 1399202880 27.3148
0186 1399205322 27.7133
0187 1399207763 28.3929
0188 1399210205 27.3992
0189 1399212646 27.5180
0190 1399215087 27.6036
0191 1399217529 27.4486
0192 1399219970 27.3575
0193 1399222412 28.0089
0194 1399224853 28.0985
0195 1399227294 27.6182
0196 1399229736 27.8405
0197 1399232177 28.1634
0198 1399234619 27.9824
0199 1399237060 28.1865
0200 1399239501 28.0065
0201 1399241943 28.0255
0202 1399244384 29.3081
0203 1399246826 28.5358
0204 1399249267 27.9565
0205 1399251708 28.3741
0206 1399254150 28.5794
0207 1399256591 28.2629
0208 1399259033 28.9261
0209 1399261474 28.9468
0210 1399263916 28.0601
0211 1399266357 28.2951
0212 1399268798 28.5646
0213 1399271240 28.7267
0214 1399273681 29.1190
0215 1399276123 29.3625
0216 1399278564 28.2313
0217 1399281005 28.2936
0218 1399283447 28.5755
0219 1399285888 28.5820
0220 1399288330 29.0681
0221 1399290771 28.4627
0222 1399293212 28.5269
0223 1399295654 28.5473
0224 1399298095 28.5343
0225 1399300537 28.3806
0226 1399302978 28.7050
0227 1399305419 29.5340
0228 1399307861 29.3451
0229 1399310302 28.8893
0230 1399312744 30.0305
0231 1399315185 29.1767
0232 1399317626 28.0316
0233 1399320068 29.1776
0234 1399322509 29.1047
0235 1399324951 28.4909
0236 1399327392 28.9835
0237 1399329833 33.8105
0238 1399332275 30.7244
0239 1399334716 28.9555
0240 1399337158 29.2678
0241 1399339599 29.1018
0242 1399342041 29.0032
0243 1399344482 29.1233
0244 1399346923 28.5537
0245 1399349365 28.7622
0246 1399351806 28.9345
0247 1399354248 28.3494
0248 1399356689 28.6804
0249 1399359130 28.6732
0250 1399361572 28.7519
0251 1399364013 28.9916
0252 1399366455 29.2494
0253 1399368896 29.6372
0254 1399371337 29.0600
0255 1399373779 29.7113
0256 1399376220 28.8870
0257 1399378662 28.8382
0258 1399381103 29.7088
0259 1399383544 28.8472
0260 1399385986 28.4082
0261 1399388427 28.4752
0262 1399390869 29.0157
0263 1399393310 28.5347
0264 1399395751 28.9713
0265 1399398193 28.9037
0266 1399400634 28.5161
0267 1399403076 28.7568
0268 1399405517 28.6277
0269 1399407958 28.5377
0270 1399410400 28.8832
0271 1399412841 28.9465
0272 1399415283 28.3754
0273 1399417724 28.5772
0274 1399420166 28.5235
0275 1399422607 28.2569
0276 1399425048 28.4764
0277 1399427490 28.8851
0278 1399429931 28.5224
0279 1399432373 28.9286
0280 1399434814 29.2583
0281 1399437255 28.2038
0282 1399439697 28.3358
0283 1399442138 29.7316
0284 1399444580 28.6397
0285 1399447021 27.9852
0286 1399449462 28.9969
0287 1399451904 29.2422
0288 1399454345 28.2779
0289 1399456787 28.5443
0290 1399459228 28.3448
0291 1399461669 28.3278
0292 1399464111 28.2370
0293 1399466552 28.5000
0294 1399468994 27.7455
0295 1399471435 28.3236
0296 1399473876 28.6457
0297 1399476318 28.3826
0298 1399478759 28.1259
0299 1399481201 28.0404
0300 1399483642 28.3091
0301 1399486083 28.7352
0302 1399488525 28.5209
0303 1399490966 28.1403
0304 1399493408 28.7383
0305 1399495849 29.0248
0306 1399498291 28.8174
0307 1399500732 29.5906
0308 1399503173 29.0262
0309 1399505615 28.5845
0310 1399508056 27.7881
0311 1399510498 28.3728
0312 1399512939 28.2884
0313 1399515380 28.1779
0314 1399517822 28.5875
0315 1399520263 28.2220
0316 1399522705 28.0821
0317 1399525146 28.7217
0318 1399527587 28.4780
0319 1399530029 28.6841
0320 1399532470 28.6679
0321 1399534912 28.3196
0322 1399537353 28.2049
0323 1399539794 28.8900
0324 1399542236 28.3778
0325 1399544677 28.4957
0326 1399547119 28.4988
0327 1399549560 28.8804
0328 1399552001 28.3314
0329 1399554443 29.1798
0330 1399556884 29.9153
0331 1399559326 28.4393
0332 1399561767 29.5505
0333 1399564208 30.9872
0334 1399566650 28.7001
0335 1399569091 28.6671
0336 1399571533 28.8825
0337 1399573974 28.7808
0338 1399576416 28.1624
0339 1399578857 28.6817
0340 1399581298 28.3085
0341 1399583740 28.5878
0342 1399586181 29.2741
0343 1399588623 29.2449
0344 1399591064 28.8413
0345 1399593505 29.6734
0346 1399595947 28.9836
0347 1399598388 28.7183
0348 1399600830 28.9493
0349 1399603271 29.1456
0350 1399605712 29.2121
0351 1399608154 28.7222
0352 1399610595 29.0358
0353 1399613037 28.7673
0354 1399615478 29.1169
0355 1399617919 29.6598
0356 1399620361 29.7212
0357 1399622802 30.2542
0358 1399625244 30.9732
0359 1399627685 29.3370
0360 1399630126 29.2774
0361 1399632568 29.6713
0362 1399635009 29.0369
0363 1399637451 29.3493
0364 1399639892 29.5239
0365 1399642333 29.2188
0366 1399644775 29.4242
0367 1399647216 29.7516
0368 1399649658 29.7768
0369 1399652099 30.1375
0370 1399654541 29.7279
0371 1399656982 29.5906
0372 1399659423 29.6307
0373 1399661865 29.6966
0374 1399664306 29.5851
0375 1399666748 29.6377
0376 1399669189 30.5259
0377 1399671630 30.4486
0378 1399674072 30.1059
0379 1399676513 34.0064
0380 1399678955 32.6487
0381 1399681396 30.8288
0382 1399683837 32.3524
0383 1399686279 32.2968
0384 1399688720 30.0425
0385 1399691162 30.3147
0386 1399693603 30.9851
0387 1399696044 30.3304
0388 1399698486 30.5342
0389 1399700927 31.0558
0390 1399703369 30.8427
0391 1399705810 31.0405
0392 1399708251 30.5404
0393 1399710693 30.5967
0394 1399713134 31.0290
0395 1399715576 31.3236
0396 1399718017 31.4081
0397 1399720458 32.1064
0398 1399722900 31.4317
0399 1399725341 31.2596
0400 1399727783 31.3597
0401 1399730224 31.2947
0402 1399732666 30.9879
0403 1399735107 31.5174
0404 1399737548 31.9375
0405 1399739990 31.3193
0406 1399742431 31.3520
0407 1399744873 33.2304
0408 1399747314 33.1700
0409 1399749755 37.1356
0410 1399752197 34.6260
0411 1399754638 31.4828
0412 1399757080 32.3232
0413 1399759521 32.0942
0414 1399761962 31.7566
0415 1399764404 32.1007
0416 1399766845 32.1844
0417 1399769287 31.8899
0418 1399771728 31.8242
0419 1399774169 31.9761
0420 1399776611 33.1558
0421 1399779052 32.3428
0422 1399781494 32.1803
0423 1399783935 32.5251
0424 1399786376 32.3668
0425 1399788818 32.2663
0426 1399791259 34.4940
0427 1399793701 37.0878
0428 1399796142 32.9502
0429 1399798583 33.6596
0430 1399801025 33.1786
0431 1399803466 33.1501
0432 1399805908 33.8773
0433 1399808349 34.6376
0434 1399810791 33.4995
0435 1399813232 33.3009
0436 1399815673 33.0334
0437 1399818115 33.2707
0438 1399820556 33.7064
0439 1399822998 34.0473
0440 1399825439 33.3263
0441 1399827880 33.3750
0442 1399830322 33.8303
0443 1399832763 33.3931
0444 1399835205 33.6058
0445 1399837646 33.7152
0446 1399840087 33.9578
0447 1399842529 34.6107
0448 1399844970 34.6720
0449 1399847412 34.4223
0450 1399849853 33.9103
0451 1399852294 34.2488
0452 1399854736 33.7269
0453 1399857177 34.4298
0454 1399859619 35.1680
0455 1399862060 34.3479
0456 1399864501 33.9317
0457 1399866943 36.4374
0458 1399869384 34.7285
0459 1399871826 34.5780
0460 1399874267 34.7070
0461 1399876708 34.1554
0462 1399879150 34.2556
0463 1399881591 35.0003
0464 1399884033 35.0091
0465 1399886474 35.0755
0466 1399888916 35.3171
0467 1399891357 34.5689
0468 1399893798 34.9641
0469 1399896240 65.9950
0470 1399898681 74.1682
0471 1399901123 35.9954
0472 1399903564 35.6215
0473 1399906005 35.5170
0474 1399908447 35.3291
0475 1399910888 35.3996
0476 1399913330 36.9427
0477 1399915771 36.2667
0478 1399918212 35.7791
0479 1399920654 35.6207
0480 1399923095 35.7127
0481 1399925537 35.6508
0482 1399927978 36.1041
0483 1399930419 35.9300
0484 1399932861 36.7162
0485 1399935302 36.5110
0486 1399937744 36.2379
0487 1399940185 36.3541
0488 1399942626 36.3913
0489 1399945068 36.3000
0490 1399947509 36.3047
0491 1399949951 36.8802
0492 1399952392 36.7586
0493 1399954833 36.9526
0494 1399957275 37.6114
0495 1399959716 36.8965
0496 1399962158 37.1363
0497 1399964599 37.4241
0498 1399967041 37.4748
0499 1399969482 37.5598
0500 1399971923 38.2275
0501 1399974365 41.0248
0502 1399976806 47.0644
0503 1399979248 61.0843
0504 1399981689 44.3633
0505 1399984130 40.1399
0506 1399986572 62.6477
0507 1399989013 83.4711
0508 1399991455 58.9273
0509 1399993896 54.4032
0510 1399996337 432.7633
0511 1399998779 695.1775
0512 1400001220 76.9242
0513 1400003662 45.9550
0514 1400006103 43.0365
0515 1400008544 40.8255
0516 1400010986 41.0226
0517 1400013427 45.2588
0518 1400015869 45.9480
0519 1400018310 38.4139
0520 1400020751 41.6075
0521 1400023193 43.4036
0522 1400025634 38.3986
0523 1400028076 38.0430
0524 1400030517 37.7222
0525 1400032958 38.1624
0526 1400035400 37.3830
0527 1400037841 37.2388
0528 1400040283 38.1677
0529 1400042724 37.6186
0530 1400045166 36.8904
0531 1400047607 39.4301
0532 1400050048 38.1953
0533 1400052490 36.1776
0534 1400054931 36.3946
0535 1400057373 36.5015
0536 1400059814 36.0569
0537 1400062255 36.1142
0538 1400064697 36.1007
0539 1400067138 35.3961
0540 1400069580 35.5997
0541 1400072021 36.5643
0542 1400074462 35.8170
0543 1400076904 35.7783
0544 1400079345 35.5248
0545 1400081787 35.1649
0546 1400084228 35.8960
0547 1400086669 37.5754
0548 1400089111 35.6637
0549 1400091552 35.0868
0550 1400093994 35.7112
0551 1400096435 35.2993
0552 1400098876 35.3072
0553 1400101318 35.0667
0554 1400103759 35.5774
0555 1400106201 35.4065
0556 1400108642 41.0531
0557 1400111083 38.0763
0558 1400113525 35.1034
0559 1400115966 35.0684
0560 1400118408 35.2108
0561 1400120849 34.7334
0562 1400123291 35.1512
0563 1400125732 35.3672
0564 1400128173 34.8175
0565 1400130615 34.5395
0566 1400133056 34.3406
0567 1400135498 34.2791
0568 1400137939 34.4155
0569 1400140380 33.7736
0570 1400142822 34.3631
0571 1400145263 34.1349
0572 1400147705 34.5599
0573 1400150146 34.1912
0574 1400152587 34.1348
0575 1400155029 35.1296
0576 1400157470 34.5512
0577 1400159912 34.2820
0578 1400162353 35.7769
0579 1400164794 34.7133
0580 1400167236 34.7150
0581 1400169677 34.6193
0582 1400172119 34.3640
0583 1400174560 33.9638
0584 1400177001 33.7235
0585 1400179443 33.4839
0586 1400181884 33.5953
0587 1400184326 33.8489
0588 1400186767 35.7953
0589 1400189208 33.8161
0590 1400191650 33.5294
0591 1400194091 33.5639
0592 1400196533 33.1181
0593 1400198974 33.2436
0594 1400201416 33.0055
0595 1400203857 33.1934
0596 1400206298 33.0621
0597 1400208740 33.7022
0598 1400211181 32.9554
0599 1400213623 33.3066
0600 1400216064 33.7633
0601 1400218505 33.2733
0602 1400220947 32.9756
0603 1400223388 33.3009
0604 1400225830 32.7457
0605 1400228271 32.2344
0606 1400230712 33.0961
0607 1400233154 32.8101
0608 1400235595 32.3536
0609 1400238037 32.4086
0610 1400240478 32.2358
0611 1400242919 31.8926
0612 1400245361 32.1366
0613 1400247802 31.9030
0614 1400250244 31.7333
0615 1400252685 32.0241
0616 1400255126 32.3435
0617 1400257568 33.7269
0618 1400260009 38.1548
0619 1400262451 32.2486
0620 1400264892 31.3633
0621 1400267333 31.5815
0622 1400269775 31.7546
0623 1400272216 31.4203
0624 1400274658 31.5753
0625 1400277099 32.2619
0626 1400279541 31.7573
0627 1400281982 31.7756
0628 1400284423 33.5338
0629 1400286865 32.0311
0630 1400289306 31.4055
0631 1400291748 33.4790
0632 1400294189 32.0203
0633 1400296630 31.1157
0634 1400299072 31.1739
0635 1400301513 32.0958
0636 1400303955 33.8996
0637 1400306396 31.3849
0638 1400308837 31.0967
0639 1400311279 30.7312
0640 1400313720 30.8125
0641 1400316162 30.7341
0642 1400318603 30.7529
0643 1400321044 31.2883
0644 1400323486 31.3051
0645 1400325927 30.7586
0646 1400328369 30.7288
0647 1400330810 30.7915
0648 1400333251 30.2567
0649 1400335693 30.6900
0650 1400338134 30.6088
0651 1400340576 30.4039
0652 1400343017 31.7907
0653 1400345458 32.0608
0654 1400347900 30.4467
0655 1400350341 30.3595
0656 1400352783 31.1156
0657 1400355224 30.4586
0658 1400357666 30.1615
0659 1400360107 30.1783
0660 1400362548 30.2800
0661 1400364990 30.1314
0662 1400367431 30.0741
0663 1400369873 30.0358
0664 1400372314 29.8584
0665 1400374755 30.2987
0666 1400377197 30.6765
0667 1400379638 31.2474
0668 1400382080 30.0282
0669 1400384521 29.9866
0670 1400386962 30.0806
0671 1400389404 30.6158
0672 1400391845 30.3367
0673 1400394287 29.4519
0674 1400396728 29.7543
0675 1400399169 30.1140
0676 1400401611 29.7569
0677 1400404052 29.9962
0678 1400406494 30.4475
0679 1400408935 29.4653
0680 1400411376 29.9305
0681 1400413818 31.9709
0682 1400416259 30.4084
0683 1400418701 29.5287
0684 1400421142 29.7159
0685 1400423583 29.6583
0686 1400426025 29.5684
0687 1400428466 29.6933
0688 1400430908 29.7498
0689 1400433349 29.5143
0690 1400435791 29.3274
0691 1400438232 29.2054
0692 1400440673 29.1746
0693 1400443115 29.4695
0694 1400445556 29.6056
0695 1400447998 29.3562
0696 1400450439 29.1367
0697 1400452880 29.2206
0698 1400455322 29.5003
0699 1400457763 29.9872
0700 1400460205 29.5356
0701 1400462646 29.3305
0702 1400465087 30.5664
0703 1400467529 30.7411
0704 1400469970 29.4262
0705 1400472412 30.1323
0706 1400474853 30.9851
0707 1400477294 29.7835
0708 1400479736 29.5639
0709 1400482177 29.5698
0710 1400484619 29.6986
0711 1400487060 29.4483
0712 1400489501 29.8173
0713 1400491943 29.3403
0714 1400494384 29.7579
0715 1400496826 31.2188
0716 1400499267 31.0919
0717 1400501708 29.6030
0718 1400504150 29.8926
0719 1400506591 29.6678
0720 1400509033 29.3805
0721 1400511474 29.5253
0722 1400513916 29.3769
0723 1400516357 29.6118
0724 1400518798 29.9605
0725 1400521240 29.3606
0726 1400523681 29.7698
0727 1400526123 30.8110
0728 1400528564 30.0110
0729 1400531005 29.4096
0730 1400533447 30.9430
0731 1400535888 31.3080
0732 1400538330 30.3558
0733 1400540771 30.0558
0734 1400543212 30.4958
0735 1400545654 29.4628
0736 1400548095 29.7913
0737 1400550537 29.9252
0738 1400552978 29.7049
0739 1400555419 29.4161
0740 1400557861 30.5197
0741 1400560302 29.9149
0742 1400562744 29.6640
0743 1400565185 29.7752
0744 1400567626 29.5771
0745 1400570068 30.0461
0746 1400572509 29.8059
0747 1400574951 29.9076
0748 1400577392 29.8742
0749 1400579833 30.0580
0750 1400582275 30.0711
0751 1400584716 29.8813
0752 1400587158 30.8419
0753 1400589599 30.7161
0754 1400592041 30.0292
0755 1400594482 32.3587
0756 1400596923 33.1499
0757 1400599365 30.4010
0758 1400601806 30.3544
0759 1400604248 30.4012
0760 1400606689 30.1749
0761 1400609130 30.5021
0762 1400611572 30.5630
0763 1400614013 30.2158
0764 1400616455 30.1347
0765 1400618896 30.3900
0766 1400621337 29.8384
0767 1400623779 30.4729
0768 1400626220 30.9576
0769 1400628662 30.3621
0770 1400631103 30.0659
0771 1400633544 30.5119
0772 1400635986 30.1620
0773 1400638427 30.6146
0774 1400640869 31.3920
0775 1400643310 30.4811
0776 1400645751 30.6475
0777 1400648193 31.4458
0778 1400650634 30.6805
0779 1400653076 30.3209
0780 1400655517 30.8513
0781 1400657958 30.9466
0782 1400660400 30.2767
0783 1400662841 30.8276
0784 1400665283 31.0459
0785 1400667724 30.6367
0786 1400670166 30.9740
0787 1400672607 36.6701
0788 1400675048 47.7892
0789 1400677490 32.4941
0790 1400679931 30.8277
0791 1400682373 30.3579
0792 1400684814 30.6520
0793 1400687255 31.0044
0794 1400689697 30.9184
0795 1400692138 36.6067
0796 1400694580 40.7383
0797 1400697021 34.4165
0798 1400699462 30.4573
0799 1400701904 30.7359
0800 1400704345 30.3925
0801 1400706787 30.8373
0802 1400709228 31.1807
0803 1400711669 30.4862
0804 1400714111 30.8637
0805 1400716552 32.8151
0806 1400718994 31.5606
0807 1400721435 30.3960
0808 1400723876 30.6981
0809 1400726318 30.5411
0810 1400728759 30.6104
0811 1400731201 30.5640
0812 1400733642 30.6905
0813 1400736083 30.0624
0814 1400738525 30.1327
0815 1400740966 30.4990
0816 1400743408 30.1367
0817 1400745849 30.3530
0818 1400748291 30.9830
0819 1400750732 30.0006
0820 1400753173 30.1445
0821 1400755615 29.9085
0822 1400758056 29.8493
0823 1400760498 30.0168
0824 1400762939 30.1532
0825 1400765380 29.7520
0826 1400767822 32.3549
0827 1400770263 31.7790
0828 1400772705 29.7707
0829 1400775146 29.4436
0830 1400777587 31.0096
0831 1400780029 30.3622
0832 1400782470 29.6983
0833 1400784912 30.0542
0834 1400787353 29.6657
0835 1400789794 29.1723
0836 1400792236 29.5167
0837 1400794677 29.4466
0838 1400797119 28.8988
0839 1400799560 29.4263
0840 1400802001 29.2952
0841 1400804443 28.9762
0842 1400806884 29.2055
0843 1400809326 28.9116
0844 1400811767 28.5190
0845 1400814208 28.8115
0846 1400816650 28.9819
0847 1400819091 28.6608
0848 1400821533 29.3178
0849 1400823974 29.9834
0850 1400826416 28.0541
0851 1400828857 28.7187
0852 1400831298 28.3652
0853 1400833740 27.7397
0854 1400836181 28.0281
0855 1400838623 28.9069
0856 1400841064 28.0228
0857 1400843505 27.6063
0858 1400845947 27.5927
0859 1400848388 27.2026
0860 1400850830 27.3695
0861 1400853271 27.5565
0862 1400855712 27.3136
0863 1400858154 26.9847
0864 1400860595 26.9229
0865 1400863037 26.7062
0866 1400865478 26.5193
0867 1400867919 26.7364
0868 1400870361 26.4696
0869 1400872802 26.3718
0870 1400875244 26.1686
0871 1400877685 26.3428
0872 1400880126 26.2275
0873 1400882568 26.3809
0874 1400885009 26.1456
0875 1400887451 29.4760
0876 1400889892 27.5904
0877 1400892333 25.7791
0878 1400894775 25.3559
0879 1400897216 25.4268
0880 1400899658 26.0711
0881 1400902099 25.3126
0882 1400904541 24.9405
0883 1400906982 24.8985
0884 1400909423 24.4994
0885 1400911865 24.1712
0886 1400914306 24.4409
0887 1400916748 24.1610
0888 1400919189 24.0795
0889 1400921630 24.3145
0890 1400924072 23.9339
0891 1400926513 24.0037
0892 1400928955 24.4136
0893 1400931396 23.3462
0894 1400933837 23.0182
0895 1400936279 22.7587
0896 1400938720 22.5654
0897 1400941162 22.6636
0898 1400943603 23.0874
0899 1400946044 22.9425
0900 1400948486 22.0838
0901 1400950927 22.6493
0902 1400953369 22.0284
0903 1400955810 21.2082
0904 1400958251 22.0166
0905 1400960693 22.5442
0906 1400963134 21.6965
0907 1400965576 22.2159
0908 1400968017 21.1402
0909 1400970458 20.7938
0910 1400972900 20.7638
0911 1400975341 20.9921
0912 1400977783 20.3967
0913 1400980224 20.0994
0914 1400982666 19.7193
0915 1400985107 19.5975
0916 1400987548 19.6017
0917 1400989990 19.6747
0918 1400992431 19.3066
0919 1400994873 19.0907
0920 1400997314 19.0012
0921 1400999755 18.7042
0922 1401002197 18.4409
0923 1401004638 18.4184
0924 1401007080 18.1135
0925 1401009521 18.0309
0926 1401011962 18.2718
0927 1401014404 17.5942
0928 1401016845 17.3003
0929 1401019287 17.4405
0930 1401021728 17.4471
0931 1401024169 16.9244
0932 1401026611 16.8441
0933 1401029052 16.5246
0934 1401031494 16.3228
0935 1401033935 16.1293
0936 1401036376 15.9023
0937 1401038818 15.6274
0938 1401041259 15.7432
0939 1401043701 15.8235
0940 1401046142 15.2569
0941 1401048583 15.0042
0942 1401051025 14.9260
0943 1401053466 14.8501
0944 1401055908 14.6342
0945 1401058349 14.5125
0946 1401060791 14.3342
0947 1401063232 14.1833
0948 1401065673 14.1263
0949 1401068115 13.9656
0950 1401070556 13.7579
0951 1401072998 13.5740
0952 1401075439 13.2041
0953 1401077880 13.0113
0954 1401080322 13.4114
0955 1401082763 13.3049
0956 1401085205 12.7083
0957 1401087646 12.5171
0958 1401090087 12.2852
0959 1401092529 11.9693
0960 1401094970 12.1308
0961 1401097412 12.3392
0962 1401099853 11.7510
0963 1401102294 11.6392
0964 1401104736 11.3702
0965 1401107177 11.1373
0966 1401109619 10.9570
0967 1401112060 10.9690
0968 1401114501 10.5628
0969 1401116943 10.6422
0970 1401119384 10.4842
0971 1401121826 10.4555
0972 1401124267 10.3253
0973 1401126708 10.4287
0974 1401129150 10.0586
0975 1401131591 9.9952
0976 1401134033 10.1431
0977 1401136474 9.6026
0978 1401138916 9.3919
0979 1401141357 9.4733
0980 1401143798 9.2397
0981 1401146240 9.0533
0982 1401148681 9.0132
0983 1401151123 8.8397
0984 1401153564 8.6477
0985 1401156005 8.6050
0986 1401158447 8.5466
0987 1401160888 8.4924
0988 1401163330 8.2756
0989 1401165771 8.1685
0990 1401168212 8.1289
0991 1401170654 8.0674
0992 1401173095 8.0623
0993 1401175537 7.8198
0994 1401177978 7.8180
0995 1401180419 7.7349
0996 1401182861 7.5108
0997 1401185302 7.4911
0998 1401187744 7.7529
0999 1401190185 7.5488
1000 1401192626 7.4220
1001 1401195068 7.6075
1002 1401197509 11.1102
1003 1401199951 8.6389
1004 1401202392 7.4254
1005 1401204833 7.0590
1006 1401207275 6.8779
1007 1401209716 6.8110
1008 1401212158 6.7367
1009 1401214599 6.8760
1010 1401217041 6.5996
1011 1401219482 6.5916
1012 1401221923 6.6116
1013 1401224365 6.5243
1014 1401226806 6.4870
1015 1401229248 6.3966
1016 1401231689 6.3654
1017 1401234130 6.3816
1018 1401236572 6.2623
1019 1401239013 6.2950
1020 1401241455 6.2833
1021 1401243896 6.2609
1022 1401246337 6.2932
1023 1401248779 6.3964
