# File: 20-05-31T224634.ast
# NOTEA     = None Attached.  RTLSDR Dongle Test
# NOTEB     = Spectral Integration
# OBSERVER  = Science Aficionado
# DEVICE    = rtlsdr=0
# DATADIR   = ../data/
# SITE      = None Attached.  RTLSDR Dongle Test
# CITY      = Green Bank
# REGION    = West Virginia
# COUNTRY   = US
# TELTYPE   = Bubble Wrap  Horn
# FRAME     = TOPO
# GAIN1     = 49.0
# GAIN2     = 11.0
# GAIN3     = 11.0
# GAIN4     = 0.0
# Count     = 10000
# CenterFreq= 1400000000.0
# Bandwidth = 2500000.0
# Duration  = 41.950864
# DeltaX    = 5859.375
# TSYS      = 200.0
# TRX       = 100.0
# TRMS      = 2.0
# TINT      = 1.0
# KPERC     = 100.0
# GAINFACT  = 1.0
# BUNIT     = Counts
# NCHAN     = 1024
# NSPEC     = 1
# NTIME     = 0
# NSAMPLES  = 0
# EPEAK     = 4.10875183718
# ERMS      = 0.995973393526
# EMJD      = 58568.808999981004 
# REFCHAN   = 512.0
# REFSAMPL  = 256.0
# NAVE      = 100
# NMEDIAN   = 1024
# Fft_rate  = 5000
# UTC       = 2020-05-31 22:46:34.936094
# SECONDS   =       0.0000000000 
# LST       = 10:06:45.900
# AZ        = 180.0
# EL        = 90.0
# TELLON    = -79:50:22.920
# TELLAT    = +38:25:59.160
# RA        = 10:04:21.130
# DEC       = +38:37:41.200
# GALLON    = 183:48:37.70
# GALLAT    = +53:26:09.90
# ALT_SUN   = +19:20:00.1
# AZ_SUN    = +283:20:10.2
# ETAA      = 0.8
# ETAB      = 0.99
# POLANGLE  = 0.0
# TELSIZEAM = 1.0
# TELSIZEBM = 1.0
# AST_VERS  = 05.01
0000 1398751220 6.5997
0001 1398753662 6.5111
0002 1398756103 6.6595
0003 1398758544 6.6732
0004 1398760986 6.6092
0005 1398763427 6.7335
0006 1398765869 6.5477
0007 1398768310 6.5082
0008 1398770751 6.5399
0009 1398773193 6.6248
0010 1398775634 6.7613
0011 1398778076 6.7822
0012 1398780517 6.6837
0013 1398782958 6.7101
0014 1398785400 6.7227
0015 1398787841 6.9830
0016 1398790283 6.9718
0017 1398792724 6.9746
0018 1398795166 7.3355
0019 1398797607 10.9953
0020 1398800048 8.2739
0021 1398802490 7.1025
0022 1398804931 7.1622
0023 1398807373 7.1601
0024 1398809814 7.2143
0025 1398812255 7.2617
0026 1398814697 7.4484
0027 1398817138 7.4552
0028 1398819580 7.4321
0029 1398822021 7.5582
0030 1398824462 7.6216
0031 1398826904 7.7812
0032 1398829345 7.7498
0033 1398831787 7.7724
0034 1398834228 8.1133
0035 1398836669 8.4154
0036 1398839111 8.1183
0037 1398841552 8.2083
0038 1398843994 8.3654
0039 1398846435 8.3373
0040 1398848876 8.4742
0041 1398851318 8.5617
0042 1398853759 8.6726
0043 1398856201 8.7950
0044 1398858642 8.9651
0045 1398861083 8.9170
0046 1398863525 9.0915
0047 1398865966 9.3068
0048 1398868408 9.3692
0049 1398870849 9.3379
0050 1398873291 9.6585
0051 1398875732 9.7128
0052 1398878173 9.8325
0053 1398880615 10.0177
0054 1398883056 10.0086
0055 1398885498 10.1767
0056 1398887939 10.7782
0057 1398890380 10.5137
0058 1398892822 10.7673
0059 1398895263 11.5827
0060 1398897705 11.6873
0061 1398900146 11.2936
0062 1398902587 11.1945
0063 1398905029 11.3096
0064 1398907470 11.5390
0065 1398909912 11.7440
0066 1398912353 11.9588
0067 1398914794 12.4705
0068 1398917236 12.1324
0069 1398919677 12.3757
0070 1398922119 12.3110
0071 1398924560 12.5003
0072 1398927001 13.0025
0073 1398929443 12.8738
0074 1398931884 13.0211
0075 1398934326 13.0685
0076 1398936767 13.1703
0077 1398939208 13.5355
0078 1398941650 13.8831
0079 1398944091 13.7386
0080 1398946533 13.8951
0081 1398948974 14.1091
0082 1398951416 14.2572
0083 1398953857 14.4407
0084 1398956298 15.0012
0085 1398958740 15.0060
0086 1398961181 15.0130
0087 1398963623 15.3413
0088 1398966064 15.4670
0089 1398968505 15.5640
0090 1398970947 15.9161
0091 1398973388 16.0774
0092 1398975830 16.0257
0093 1398978271 16.5460
0094 1398980712 16.4798
0095 1398983154 16.3821
0096 1398985595 16.8070
0097 1398988037 17.1225
0098 1398990478 16.9832
0099 1398992919 17.1195
0100 1398995361 17.2577
0101 1398997802 17.4183
0102 1399000244 17.6010
0103 1399002685 18.0097
0104 1399005126 18.1013
0105 1399007568 18.3308
0106 1399010009 18.7761
0107 1399012451 18.4654
0108 1399014892 18.8217
0109 1399017333 20.1407
0110 1399019775 19.4150
0111 1399022216 19.2649
0112 1399024658 19.5611
0113 1399027099 19.6544
0114 1399029541 19.8327
0115 1399031982 19.7975
0116 1399034423 20.0886
0117 1399036865 20.1971
0118 1399039306 20.6988
0119 1399041748 20.7402
0120 1399044189 20.5439
0121 1399046630 20.8051
0122 1399049072 21.0972
0123 1399051513 21.1747
0124 1399053955 21.3306
0125 1399056396 21.7829
0126 1399058837 21.7249
0127 1399061279 22.1288
0128 1399063720 22.3635
0129 1399066162 21.7978
0130 1399068603 22.5727
0131 1399071044 22.9362
0132 1399073486 22.5017
0133 1399075927 22.7824
0134 1399078369 23.8822
0135 1399080810 22.9492
0136 1399083251 23.0171
0137 1399085693 23.8131
0138 1399088134 23.6736
0139 1399090576 23.6011
0140 1399093017 24.3649
0141 1399095458 24.6380
0142 1399097900 23.9244
0143 1399100341 24.5257
0144 1399102783 24.4174
0145 1399105224 24.3229
0146 1399107666 24.7720
0147 1399110107 24.6622
0148 1399112548 24.5868
0149 1399114990 24.8951
0150 1399117431 25.1249
0151 1399119873 25.4007
0152 1399122314 25.4489
0153 1399124755 25.4685
0154 1399127197 25.5573
0155 1399129638 25.8948
0156 1399132080 26.2858
0157 1399134521 28.2526
0158 1399136962 28.9950
0159 1399139404 27.8049
0160 1399141845 26.4345
0161 1399144287 26.4134
0162 1399146728 26.5155
0163 1399149169 26.6999
0164 1399151611 26.7934
0165 1399154052 26.9739
0166 1399156494 26.9981
0167 1399158935 26.7136
0168 1399161376 27.3399
0169 1399163818 26.7807
0170 1399166259 27.1627
0171 1399168701 27.6812
0172 1399171142 27.3195
0173 1399173583 27.3873
0174 1399176025 27.7107
0175 1399178466 27.8424
0176 1399180908 27.7800
0177 1399183349 28.2575
0178 1399185791 28.1052
0179 1399188232 28.3634
0180 1399190673 29.6489
0181 1399193115 28.8013
0182 1399195556 27.9558
0183 1399197998 28.7720
0184 1399200439 30.0176
0185 1399202880 28.4099
0186 1399205322 29.0101
0187 1399207763 30.0889
0188 1399210205 29.1368
0189 1399212646 28.8281
0190 1399215087 28.9352
0191 1399217529 28.6352
0192 1399219970 28.9605
0193 1399222412 30.1577
0194 1399224853 29.5851
0195 1399227294 29.1257
0196 1399229736 28.8883
0197 1399232177 28.9309
0198 1399234619 29.2980
0199 1399237060 29.5137
0200 1399239501 29.1574
0201 1399241943 29.4312
0202 1399244384 30.6661
0203 1399246826 30.0046
0204 1399249267 29.3322
0205 1399251708 29.7375
0206 1399254150 29.8232
0207 1399256591 29.4597
0208 1399259033 30.1590
0209 1399261474 30.3261
0210 1399263916 29.3590
0211 1399266357 29.6726
0212 1399268798 30.0430
0213 1399271240 30.1064
0214 1399273681 30.4363
0215 1399276123 30.7425
0216 1399278564 29.5984
0217 1399281005 29.4248
0218 1399283447 29.9783
0219 1399285888 29.9754
0220 1399288330 30.3759
0221 1399290771 30.0261
0222 1399293212 29.7203
0223 1399295654 30.0862
0224 1399298095 30.1909
0225 1399300537 29.9590
0226 1399302978 30.3801
0227 1399305419 30.8852
0228 1399307861 30.8168
0229 1399310302 30.3391
0230 1399312744 31.4831
0231 1399315185 30.4784
0232 1399317626 30.2308
0233 1399320068 30.9139
0234 1399322509 30.7323
0235 1399324951 29.8646
0236 1399327392 30.8247
0237 1399329833 35.8469
0238 1399332275 32.3258
0239 1399334716 29.9837
0240 1399337158 30.8922
0241 1399339599 30.6266
0242 1399342041 30.3261
0243 1399344482 30.6217
0244 1399346923 30.2140
0245 1399349365 30.0816
0246 1399351806 30.4770
0247 1399354248 29.9287
0248 1399356689 29.8329
0249 1399359130 30.1885
0250 1399361572 30.1041
0251 1399364013 30.5420
0252 1399366455 31.0041
0253 1399368896 31.2445
0254 1399371337 30.5539
0255 1399373779 31.2532
0256 1399376220 30.5392
0257 1399378662 30.4860
0258 1399381103 31.0300
0259 1399383544 30.4796
0260 1399385986 29.8218
0261 1399388427 30.1744
0262 1399390869 30.3217
0263 1399393310 30.2449
0264 1399395751 30.0317
0265 1399398193 29.9175
0266 1399400634 30.2164
0267 1399403076 30.1514
0268 1399405517 30.0314
0269 1399407958 29.7310
0270 1399410400 30.2675
0271 1399412841 30.1039
0272 1399415283 29.8625
0273 1399417724 29.9707
0274 1399420166 30.1155
0275 1399422607 29.8803
0276 1399425048 29.9301
0277 1399427490 30.3052
0278 1399429931 29.9957
0279 1399432373 30.2867
0280 1399434814 30.6744
0281 1399437255 29.8442
0282 1399439697 29.9710
0283 1399442138 31.4128
0284 1399444580 30.3345
0285 1399447021 29.3695
0286 1399449462 30.0286
0287 1399451904 30.3423
0288 1399454345 29.8351
0289 1399456787 29.7789
0290 1399459228 29.7396
0291 1399461669 29.3628
0292 1399464111 29.8735
0293 1399466552 29.4250
0294 1399468994 29.4774
0295 1399471435 29.8003
0296 1399473876 30.2732
0297 1399476318 29.4674
0298 1399478759 29.3807
0299 1399481201 29.5368
0300 1399483642 29.8896
0301 1399486083 29.6836
0302 1399488525 29.9185
0303 1399490966 29.4282
0304 1399493408 30.0447
0305 1399495849 30.3424
0306 1399498291 29.8806
0307 1399500732 30.6142
0308 1399503173 30.3292
0309 1399505615 29.5702
0310 1399508056 29.5614
0311 1399510498 29.8010
0312 1399512939 29.5991
0313 1399515380 29.6514
0314 1399517822 29.5473
0315 1399520263 29.5705
0316 1399522705 29.5368
0317 1399525146 30.2345
0318 1399527587 29.7025
0319 1399530029 30.1807
0320 1399532470 30.3284
0321 1399534912 29.8690
0322 1399537353 29.4586
0323 1399539794 30.0680
0324 1399542236 29.9886
0325 1399544677 29.5371
0326 1399547119 29.7639
0327 1399549560 30.2382
0328 1399552001 30.0084
0329 1399554443 30.5370
0330 1399556884 30.9776
0331 1399559326 30.1375
0332 1399561767 31.0278
0333 1399564208 32.5640
0334 1399566650 30.0076
0335 1399569091 29.8080
0336 1399571533 30.2940
0337 1399573974 29.9163
0338 1399576416 30.0947
0339 1399578857 30.2296
0340 1399581298 29.9559
0341 1399583740 30.2571
0342 1399586181 30.8511
0343 1399588623 30.7347
0344 1399591064 30.2756
0345 1399593505 30.7481
0346 1399595947 30.6695
0347 1399598388 29.8841
0348 1399600830 30.1828
0349 1399603271 30.7023
0350 1399605712 30.8354
0351 1399608154 30.6313
0352 1399610595 30.5030
0353 1399613037 30.2546
0354 1399615478 30.8875
0355 1399617919 31.2828
0356 1399620361 30.9105
0357 1399622802 31.7090
0358 1399625244 32.6631
0359 1399627685 30.9619
0360 1399630126 30.7805
0361 1399632568 30.9554
0362 1399635009 30.5499
0363 1399637451 31.2607
0364 1399639892 31.0250
0365 1399642333 30.8742
0366 1399644775 30.9848
0367 1399647216 31.2012
0368 1399649658 30.9699
0369 1399652099 31.5410
0370 1399654541 31.4118
0371 1399656982 30.8484
0372 1399659423 31.1035
0373 1399661865 31.5064
0374 1399664306 31.0181
0375 1399666748 31.1677
0376 1399669189 31.8641
0377 1399671630 31.7129
0378 1399674072 31.6308
0379 1399676513 36.0269
0380 1399678955 34.5638
0381 1399681396 32.4800
0382 1399683837 33.5295
0383 1399686279 33.8875
0384 1399688720 31.7280
0385 1399691162 31.9896
0386 1399693603 32.3284
0387 1399696044 31.9322
0388 1399698486 32.1641
0389 1399700927 32.2761
0390 1399703369 32.2060
0391 1399705810 31.8610
0392 1399708251 31.9325
0393 1399710693 31.9685
0394 1399713134 32.3079
0395 1399715576 32.8564
0396 1399718017 32.7025
0397 1399720458 33.2250
0398 1399722900 33.1955
0399 1399725341 32.7883
0400 1399727783 32.8389
0401 1399730224 32.7475
0402 1399732666 32.5632
0403 1399735107 32.6224
0404 1399737548 33.3372
0405 1399739990 32.8036
0406 1399742431 32.9615
0407 1399744873 34.7230
0408 1399747314 34.8212
0409 1399749755 39.4322
0410 1399752197 36.5170
0411 1399754638 33.2010
0412 1399757080 33.7467
0413 1399759521 33.9493
0414 1399761962 33.2586
0415 1399764404 33.5230
0416 1399766845 33.4855
0417 1399769287 33.4559
0418 1399771728 33.5672
0419 1399774169 33.9028
0420 1399776611 34.9175
0421 1399779052 34.1087
0422 1399781494 33.8788
0423 1399783935 33.8651
0424 1399786376 34.0913
0425 1399788818 34.3181
0426 1399791259 36.5199
0427 1399793701 39.7488
0428 1399796142 34.4705
0429 1399798583 34.9382
0430 1399801025 34.9336
0431 1399803466 34.4125
0432 1399805908 35.4784
0433 1399808349 35.9184
0434 1399810791 35.1770
0435 1399813232 35.3768
0436 1399815673 35.0343
0437 1399818115 34.5182
0438 1399820556 35.2185
0439 1399822998 35.7110
0440 1399825439 35.1359
0441 1399827880 34.8590
0442 1399830322 35.6388
0443 1399832763 35.0337
0444 1399835205 35.4001
0445 1399837646 35.2237
0446 1399840087 35.4404
0447 1399842529 35.8099
0448 1399844970 36.4387
0449 1399847412 35.6766
0450 1399849853 35.4242
0451 1399852294 35.6660
0452 1399854736 35.5161
0453 1399857177 36.3103
0454 1399859619 36.8023
0455 1399862060 35.6493
0456 1399864501 35.6433
0457 1399866943 38.3708
0458 1399869384 36.6542
0459 1399871826 36.5436
0460 1399874267 36.5688
0461 1399876708 36.1504
0462 1399879150 36.2034
0463 1399881591 36.4165
0464 1399884033 36.3461
0465 1399886474 36.5242
0466 1399888916 36.8566
0467 1399891357 36.3267
0468 1399893798 36.4725
0469 1399896240 68.6485
0470 1399898681 76.5172
0471 1399901123 37.7514
0472 1399903564 37.3589
0473 1399906005 36.9900
0474 1399908447 36.9778
0475 1399910888 36.4712
0476 1399913330 38.4510
0477 1399915771 38.1365
0478 1399918212 37.6565
0479 1399920654 37.8120
0480 1399923095 37.4104
0481 1399925537 37.3735
0482 1399927978 38.5341
0483 1399930419 38.0675
0484 1399932861 37.8093
0485 1399935302 38.6048
0486 1399937744 37.4502
0487 1399940185 38.0750
0488 1399942626 38.2629
0489 1399945068 37.8875
0490 1399947509 38.4798
0491 1399949951 38.5171
0492 1399952392 38.4697
0493 1399954833 38.5925
0494 1399957275 39.4174
0495 1399959716 38.8841
0496 1399962158 38.5436
0497 1399964599 38.8967
0498 1399967041 39.3079
0499 1399969482 39.2105
0500 1399971923 39.6408
0501 1399974365 42.4084
0502 1399976806 48.1977
0503 1399979248 63.3108
0504 1399981689 45.6915
0505 1399984130 41.7363
0506 1399986572 62.9586
0507 1399989013 85.7144
0508 1399991455 64.3740
0509 1399993896 57.8825
0510 1399996337 460.5210
0511 1399998779 728.5517
0512 1400001220 77.3719
0513 1400003662 47.5114
0514 1400006103 44.5492
0515 1400008544 42.3424
0516 1400010986 43.4597
0517 1400013427 45.1171
0518 1400015869 45.5368
0519 1400018310 40.2010
0520 1400020751 43.2981
0521 1400023193 45.2495
0522 1400025634 40.1621
0523 1400028076 39.7405
0524 1400030517 39.7495
0525 1400032958 39.4285
0526 1400035400 39.3169
0527 1400037841 39.4194
0528 1400040283 40.2039
0529 1400042724 39.4709
0530 1400045166 38.7815
0531 1400047607 40.7842
0532 1400050048 39.3614
0533 1400052490 37.9354
0534 1400054931 38.2558
0535 1400057373 38.1689
0536 1400059814 37.8859
0537 1400062255 37.7297
0538 1400064697 37.6397
0539 1400067138 36.9972
0540 1400069580 37.2855
0541 1400072021 37.7217
0542 1400074462 37.0091
0543 1400076904 37.4346
0544 1400079345 37.5549
0545 1400081787 37.0805
0546 1400084228 37.9398
0547 1400086669 39.4308
0548 1400089111 37.5674
0549 1400091552 36.9922
0550 1400093994 37.5873
0551 1400096435 37.4794
0552 1400098876 36.7002
0553 1400101318 36.8545
0554 1400103759 37.2291
0555 1400106201 37.1893
0556 1400108642 43.1944
0557 1400111083 40.7425
0558 1400113525 37.0328
0559 1400115966 37.2857
0560 1400118408 37.3994
0561 1400120849 36.2829
0562 1400123291 36.6796
0563 1400125732 36.9062
0564 1400128173 35.9183
0565 1400130615 36.1529
0566 1400133056 36.1778
0567 1400135498 35.9539
0568 1400137939 35.9726
0569 1400140380 36.0223
0570 1400142822 36.1612
0571 1400145263 36.1349
0572 1400147705 36.1389
0573 1400150146 36.0551
0574 1400152587 35.8675
0575 1400155029 36.8468
0576 1400157470 36.3834
0577 1400159912 36.0357
0578 1400162353 37.4268
0579 1400164794 36.5061
0580 1400167236 36.2964
0581 1400169677 36.6742
0582 1400172119 36.4447
0583 1400174560 35.0705
0584 1400177001 35.1893
0585 1400179443 35.1423
0586 1400181884 35.3710
0587 1400184326 35.5013
0588 1400186767 37.1956
0589 1400189208 35.3549
0590 1400191650 35.0126
0591 1400194091 35.1644
0592 1400196533 34.9339
0593 1400198974 34.7107
0594 1400201416 35.0508
0595 1400203857 34.8761
0596 1400206298 35.0489
0597 1400208740 35.4634
0598 1400211181 34.7689
0599 1400213623 34.5335
0600 1400216064 35.2892
0601 1400218505 34.6946
0602 1400220947 34.2220
0603 1400223388 34.5307
0604 1400225830 34.4167
0605 1400228271 33.8119
0606 1400230712 34.3306
0607 1400233154 34.4237
0608 1400235595 33.9320
0609 1400238037 34.1044
0610 1400240478 34.0484
0611 1400242919 33.3909
0612 1400245361 33.7994
0613 1400247802 33.8124
0614 1400250244 33.5247
0615 1400252685 33.8861
0616 1400255126 34.0854
0617 1400257568 35.3560
0618 1400260009 39.8789
0619 1400262451 34.2094
0620 1400264892 33.0365
0621 1400267333 33.2870
0622 1400269775 33.1144
0623 1400272216 32.9161
0624 1400274658 33.0227
0625 1400277099 33.8074
0626 1400279541 33.4465
0627 1400281982 33.4944
0628 1400284423 35.0646
0629 1400286865 33.3804
0630 1400289306 32.6775
0631 1400291748 34.9420
0632 1400294189 33.6924
0633 1400296630 32.2729
0634 1400299072 32.5461
0635 1400301513 33.5005
0636 1400303955 35.7162
0637 1400306396 33.2567
0638 1400308837 32.7306
0639 1400311279 32.3070
0640 1400313720 32.6832
0641 1400316162 32.5261
0642 1400318603 32.1755
0643 1400321044 32.5306
0644 1400323486 32.7546
0645 1400325927 31.8131
0646 1400328369 32.5137
0647 1400330810 32.3082
0648 1400333251 32.1772
0649 1400335693 31.9845
0650 1400338134 32.3737
0651 1400340576 32.1249
0652 1400343017 33.6867
0653 1400345458 33.6488
0654 1400347900 31.6474
0655 1400350341 31.6817
0656 1400352783 32.8724
0657 1400355224 32.1512
0658 1400357666 31.7605
0659 1400360107 31.7423
0660 1400362548 31.5482
0661 1400364990 31.6510
0662 1400367431 31.6271
0663 1400369873 31.2835
0664 1400372314 31.2475
0665 1400374755 31.6411
0666 1400377197 32.1825
0667 1400379638 32.9364
0668 1400382080 31.2188
0669 1400384521 31.2558
0670 1400386962 31.6598
0671 1400389404 31.8319
0672 1400391845 31.5344
0673 1400394287 31.1149
0674 1400396728 31.4372
0675 1400399169 31.7402
0676 1400401611 31.1308
0677 1400404052 31.4432
0678 1400406494 31.8650
0679 1400408935 31.1496
0680 1400411376 31.7281
0681 1400413818 33.3339
0682 1400416259 31.5676
0683 1400418701 30.7926
0684 1400421142 31.0994
0685 1400423583 30.5354
0686 1400426025 30.4878
0687 1400428466 31.2048
0688 1400430908 30.8524
0689 1400433349 30.4682
0690 1400435791 30.6431
0691 1400438232 30.6072
0692 1400440673 30.8105
0693 1400443115 30.9914
0694 1400445556 30.9544
0695 1400447998 30.4325
0696 1400450439 30.5351
0697 1400452880 30.9171
0698 1400455322 30.4882
0699 1400457763 30.9369
0700 1400460205 30.7499
0701 1400462646 30.8149
0702 1400465087 32.0023
0703 1400467529 32.3126
0704 1400469970 30.8384
0705 1400472412 31.2666
0706 1400474853 32.9816
0707 1400477294 31.3391
0708 1400479736 30.6343
0709 1400482177 30.7872
0710 1400484619 31.0765
0711 1400487060 31.3671
0712 1400489501 31.2900
0713 1400491943 30.6727
0714 1400494384 30.5789
0715 1400496826 31.7409
0716 1400499267 31.0839
0717 1400501708 30.9939
0718 1400504150 31.4480
0719 1400506591 31.0249
0720 1400509033 30.5264
0721 1400511474 30.9525
0722 1400513916 30.8913
0723 1400516357 31.1073
0724 1400518798 31.2045
0725 1400521240 31.1379
0726 1400523681 31.2276
0727 1400526123 32.2763
0728 1400528564 31.4328
0729 1400531005 30.8646
0730 1400533447 32.0504
0731 1400535888 33.0196
0732 1400538330 31.6985
0733 1400540771 31.4697
0734 1400543212 31.8102
0735 1400545654 31.0891
0736 1400548095 31.1258
0737 1400550537 31.7293
0738 1400552978 31.1948
0739 1400555419 31.1741
0740 1400557861 31.8904
0741 1400560302 31.7181
0742 1400562744 30.8172
0743 1400565185 31.3141
0744 1400567626 30.9677
0745 1400570068 31.3486
0746 1400572509 31.5230
0747 1400574951 31.2350
0748 1400577392 31.3543
0749 1400579833 31.7323
0750 1400582275 31.4906
0751 1400584716 31.5031
0752 1400587158 32.8812
0753 1400589599 31.6879
0754 1400592041 31.3785
0755 1400594482 33.8736
0756 1400596923 34.8857
0757 1400599365 31.8121
0758 1400601806 31.5900
0759 1400604248 31.7794
0760 1400606689 31.3026
0761 1400609130 31.6170
0762 1400611572 31.7131
0763 1400614013 31.5385
0764 1400616455 31.4981
0765 1400618896 32.0058
0766 1400621337 31.6302
0767 1400623779 31.8718
0768 1400626220 32.5861
0769 1400628662 31.6730
0770 1400631103 31.6294
0771 1400633544 31.7555
0772 1400635986 31.7706
0773 1400638427 31.7982
0774 1400640869 32.9353
0775 1400643310 32.0929
0776 1400645751 32.4049
0777 1400648193 32.9646
0778 1400650634 31.8762
0779 1400653076 32.0117
0780 1400655517 32.1833
0781 1400657958 32.3343
0782 1400660400 31.7899
0783 1400662841 31.9545
0784 1400665283 32.2854
0785 1400667724 31.7479
0786 1400670166 32.5022
0787 1400672607 38.9099
0788 1400675048 49.3325
0789 1400677490 33.7327
0790 1400679931 32.3887
0791 1400682373 31.6838
0792 1400684814 32.0868
0793 1400687255 32.4480
0794 1400689697 32.0973
0795 1400692138 37.7816
0796 1400694580 42.2232
0797 1400697021 35.3875
0798 1400699462 32.1095
0799 1400701904 31.8929
0800 1400704345 31.9580
0801 1400706787 32.0273
0802 1400709228 32.3941
0803 1400711669 32.2005
0804 1400714111 32.3631
0805 1400716552 34.3134
0806 1400718994 33.2583
0807 1400721435 31.9262
0808 1400723876 32.3317
0809 1400726318 31.5538
0810 1400728759 32.0271
0811 1400731201 31.8851
0812 1400733642 31.4910
0813 1400736083 31.3986
0814 1400738525 31.5734
0815 1400740966 31.5081
0816 1400743408 31.5833
0817 1400745849 31.9492
0818 1400748291 31.9821
0819 1400750732 31.2127
0820 1400753173 31.3703
0821 1400755615 31.3881
0822 1400758056 31.3082
0823 1400760498 31.3844
0824 1400762939 31.3569
0825 1400765380 31.1488
0826 1400767822 33.7838
0827 1400770263 33.3253
0828 1400772705 31.2508
0829 1400775146 31.2987
0830 1400777587 32.6789
0831 1400780029 31.7183
0832 1400782470 30.8860
0833 1400784912 31.2925
0834 1400787353 31.2365
0835 1400789794 31.1162
0836 1400792236 31.0537
0837 1400794677 30.8011
0838 1400797119 31.0335
0839 1400799560 30.8982
0840 1400802001 30.5137
0841 1400804443 30.4291
0842 1400806884 30.4333
0843 1400809326 30.4999
0844 1400811767 30.1813
0845 1400814208 30.4023
0846 1400816650 29.8401
0847 1400819091 29.9172
0848 1400821533 30.8078
0849 1400823974 31.6364
0850 1400826416 29.7074
0851 1400828857 30.1460
0852 1400831298 30.0539
0853 1400833740 29.4192
0854 1400836181 29.4486
0855 1400838623 30.3576
0856 1400841064 29.3419
0857 1400843505 29.3470
0858 1400845947 29.1620
0859 1400848388 28.8295
0860 1400850830 28.5898
0861 1400853271 29.1042
0862 1400855712 28.7423
0863 1400858154 28.3954
0864 1400860595 28.4195
0865 1400863037 28.2562
0866 1400865478 27.8516
0867 1400867919 28.1202
0868 1400870361 27.6788
0869 1400872802 27.8383
0870 1400875244 27.7073
0871 1400877685 27.9193
0872 1400880126 27.2502
0873 1400882568 27.5297
0874 1400885009 27.5451
0875 1400887451 31.2194
0876 1400889892 29.2302
0877 1400892333 27.2888
0878 1400894775 26.8199
0879 1400897216 26.8523
0880 1400899658 27.2530
0881 1400902099 26.2582
0882 1400904541 26.0302
0883 1400906982 25.9611
0884 1400909423 25.6597
0885 1400911865 25.6922
0886 1400914306 25.4822
0887 1400916748 25.3886
0888 1400919189 25.0041
0889 1400921630 25.2549
0890 1400924072 25.1278
0891 1400926513 25.4011
0892 1400928955 25.4834
0893 1400931396 24.3964
0894 1400933837 24.1817
0895 1400936279 24.1287
0896 1400938720 23.8684
0897 1400941162 23.5520
0898 1400943603 23.8830
0899 1400946044 24.0834
0900 1400948486 23.5438
0901 1400950927 23.5775
0902 1400953369 23.0644
0903 1400955810 22.3901
0904 1400958251 23.1290
0905 1400960693 23.4778
0906 1400963134 22.6695
0907 1400965576 23.2782
0908 1400968017 22.1197
0909 1400970458 21.5701
0910 1400972900 21.7079
0911 1400975341 21.6659
0912 1400977783 21.2066
0913 1400980224 21.1054
0914 1400982666 20.8746
0915 1400985107 20.5829
0916 1400987548 20.6502
0917 1400989990 20.4334
0918 1400992431 20.1530
0919 1400994873 19.9879
0920 1400997314 19.8587
0921 1400999755 19.4197
0922 1401002197 19.3319
0923 1401004638 19.0560
0924 1401007080 18.9931
0925 1401009521 18.6894
0926 1401011962 18.8938
0927 1401014404 18.5284
0928 1401016845 18.0397
0929 1401019287 18.3835
0930 1401021728 18.1057
0931 1401024169 17.6477
0932 1401026611 17.5336
0933 1401029052 17.3228
0934 1401031494 16.9608
0935 1401033935 16.7906
0936 1401036376 16.7684
0937 1401038818 16.5555
0938 1401041259 16.4443
0939 1401043701 16.3909
0940 1401046142 15.8580
0941 1401048583 15.7027
0942 1401051025 15.6853
0943 1401053466 15.3656
0944 1401055908 15.4551
0945 1401058349 15.1090
0946 1401060791 14.8603
0947 1401063232 14.7053
0948 1401065673 14.8233
0949 1401068115 14.5208
0950 1401070556 14.2212
0951 1401072998 14.2893
0952 1401075439 13.8684
0953 1401077880 13.6546
0954 1401080322 13.9432
0955 1401082763 13.9574
0956 1401085205 13.3005
0957 1401087646 13.3651
0958 1401090087 12.9763
0959 1401092529 12.7085
0960 1401094970 12.6622
0961 1401097412 12.8000
0962 1401099853 12.4426
0963 1401102294 12.2312
0964 1401104736 11.8533
0965 1401107177 11.6182
0966 1401109619 11.5790
0967 1401112060 11.3875
0968 1401114501 11.2337
0969 1401116943 11.2205
0970 1401119384 10.9068
0971 1401121826 10.8277
0972 1401124267 10.7949
0973 1401126708 10.8398
0974 1401129150 10.4633
0975 1401131591 10.4125
0976 1401134033 10.4933
0977 1401136474 10.0707
0978 1401138916 9.8696
0979 1401141357 9.9289
0980 1401143798 9.6776
0981 1401146240 9.4987
0982 1401148681 9.4160
0983 1401151123 9.2115
0984 1401153564 9.0348
0985 1401156005 9.0135
0986 1401158447 9.0076
0987 1401160888 8.8125
0988 1401163330 8.7980
0989 1401165771 8.6921
0990 1401168212 8.4119
0991 1401170654 8.4689
0992 1401173095 8.3929
0993 1401175537 8.2548
0994 1401177978 8.3182
0995 1401180419 8.2715
0996 1401182861 7.9949
0997 1401185302 7.8856
0998 1401187744 8.1568
0999 1401190185 7.8608
1000 1401192626 7.7558
1001 1401195068 8.0433
1002 1401197509 11.6857
1003 1401199951 9.0438
1004 1401202392 7.8095
1005 1401204833 7.3578
1006 1401207275 7.2253
1007 1401209716 7.1375
1008 1401212158 7.0289
1009 1401214599 7.1569
1010 1401217041 7.0693
1011 1401219482 6.9294
1012 1401221923 6.9142
1013 1401224365 6.8578
1014 1401226806 6.8485
1015 1401229248 6.7635
1016 1401231689 6.7230
1017 1401234130 6.6599
1018 1401236572 6.6688
1019 1401239013 6.6791
1020 1401241455 6.6180
1021 1401243896 6.6056
1022 1401246337 6.5974
1023 1401248779 6.6293
