# File: 20-05-31T225046.ast
# NOTEA     = None Attached.  RTLSDR Dongle Test
# NOTEB     = Spectral Integration
# OBSERVER  = Science Aficionado
# DEVICE    = rtlsdr=0
# DATADIR   = ../data/
# SITE      = None Attached.  RTLSDR Dongle Test
# CITY      = Green Bank
# REGION    = West Virginia
# COUNTRY   = US
# TELTYPE   = Bubble Wrap  Horn
# FRAME     = TOPO
# GAIN1     = 49.0
# GAIN2     = 11.0
# GAIN3     = 11.0
# GAIN4     = 0.0
# Count     = 10000
# CenterFreq= 1400000000.0
# Bandwidth = 2500000.0
# Duration  = 41.951474
# DeltaX    = 5859.375
# TSYS      = 200.0
# TRX       = 100.0
# TRMS      = 2.0
# TINT      = 1.0
# KPERC     = 100.0
# GAINFACT  = 1.0
# BUNIT     = Counts
# NCHAN     = 1024
# NSPEC     = 1
# NTIME     = 0
# NSAMPLES  = 0
# EPEAK     = 4.10875183718
# ERMS      = 0.995973393526
# EMJD      = 58568.808999981004 
# REFCHAN   = 512.0
# REFSAMPL  = 256.0
# NAVE      = 100
# NMEDIAN   = 1024
# Fft_rate  = 5000
# UTC       = 2020-05-31 22:50:46.652958
# SECONDS   =       0.0000000000 
# LST       = 10:10:58.310
# AZ        = 180.0
# EL        = 90.0
# TELLON    = -79:50:22.920
# TELLAT    = +38:25:59.160
# RA        = 10:08:34.200
# DEC       = +38:37:48.200
# GALLON    = 183:39:41.40
# GALLAT    = +54:15:18.50
# ALT_SUN   = +18:32:14.3
# AZ_SUN    = +283:55:19.7
# ETAA      = 0.8
# ETAB      = 0.99
# POLANGLE  = 0.0
# TELSIZEAM = 1.0
# TELSIZEBM = 1.0
# AST_VERS  = 05.01
0000 1398751220 6.2567
0001 1398753662 6.2116
0002 1398756103 6.2806
0003 1398758544 6.3397
0004 1398760986 6.3924
0005 1398763427 6.3794
0006 1398765869 6.2472
0007 1398768310 6.1481
0008 1398770751 6.1660
0009 1398773193 6.3864
0010 1398775634 6.3821
0011 1398778076 6.3753
0012 1398780517 6.3655
0013 1398782958 6.3497
0014 1398785400 6.3794
0015 1398787841 6.7017
0016 1398790283 6.5948
0017 1398792724 6.6031
0018 1398795166 6.8831
0019 1398797607 10.1273
0020 1398800048 7.8208
0021 1398802490 6.8100
0022 1398804931 6.7070
0023 1398807373 6.6947
0024 1398809814 6.7646
0025 1398812255 6.9311
0026 1398814697 7.0534
0027 1398817138 7.0335
0028 1398819580 7.0392
0029 1398822021 7.2124
0030 1398824462 7.2634
0031 1398826904 7.3002
0032 1398829345 7.2717
0033 1398831787 7.3997
0034 1398834228 7.7136
0035 1398836669 7.7785
0036 1398839111 7.6295
0037 1398841552 7.7086
0038 1398843994 7.9149
0039 1398846435 7.8897
0040 1398848876 8.1067
0041 1398851318 8.1319
0042 1398853759 8.2145
0043 1398856201 8.3849
0044 1398858642 8.5298
0045 1398861083 8.5185
0046 1398863525 8.5388
0047 1398865966 8.9169
0048 1398868408 8.9910
0049 1398870849 8.9280
0050 1398873291 9.1727
0051 1398875732 9.1642
0052 1398878173 9.2573
0053 1398880615 9.5361
0054 1398883056 9.5582
0055 1398885498 9.7896
0056 1398887939 10.2527
0057 1398890380 10.0054
0058 1398892822 10.0319
0059 1398895263 10.8390
0060 1398897705 11.0566
0061 1398900146 10.5479
0062 1398902587 10.5694
0063 1398905029 10.6722
0064 1398907470 10.9272
0065 1398909912 11.0558
0066 1398912353 11.5468
0067 1398914794 12.0254
0068 1398917236 11.6365
0069 1398919677 11.7402
0070 1398922119 11.7435
0071 1398924560 11.9217
0072 1398927001 12.4058
0073 1398929443 12.3376
0074 1398931884 12.5236
0075 1398934326 12.5349
0076 1398936767 12.5987
0077 1398939208 12.8363
0078 1398941650 13.1362
0079 1398944091 13.0316
0080 1398946533 13.3594
0081 1398948974 13.6077
0082 1398951416 13.5192
0083 1398953857 13.7012
0084 1398956298 14.3637
0085 1398958740 14.2956
0086 1398961181 14.1298
0087 1398963623 14.4712
0088 1398966064 14.5233
0089 1398968505 14.7087
0090 1398970947 15.0351
0091 1398973388 15.3524
0092 1398975830 15.2937
0093 1398978271 15.6489
0094 1398980712 15.7412
0095 1398983154 15.5337
0096 1398985595 15.9908
0097 1398988037 16.3994
0098 1398990478 16.0435
0099 1398992919 16.1927
0100 1398995361 16.4444
0101 1398997802 16.6531
0102 1399000244 16.9105
0103 1399002685 17.0160
0104 1399005126 17.2504
0105 1399007568 17.4257
0106 1399010009 17.6524
0107 1399012451 17.5895
0108 1399014892 17.8668
0109 1399017333 19.0182
0110 1399019775 18.2137
0111 1399022216 18.2236
0112 1399024658 18.6466
0113 1399027099 18.8208
0114 1399029541 18.7979
0115 1399031982 18.9478
0116 1399034423 19.2057
0117 1399036865 18.9832
0118 1399039306 19.6414
0119 1399041748 19.8476
0120 1399044189 19.5401
0121 1399046630 19.7691
0122 1399049072 20.1370
0123 1399051513 20.1491
0124 1399053955 20.3794
0125 1399056396 20.8843
0126 1399058837 20.3600
0127 1399061279 20.9127
0128 1399063720 21.3890
0129 1399066162 20.8958
0130 1399068603 21.1713
0131 1399071044 21.6057
0132 1399073486 21.2773
0133 1399075927 21.6750
0134 1399078369 22.5563
0135 1399080810 21.7344
0136 1399083251 22.0996
0137 1399085693 22.7006
0138 1399088134 22.8544
0139 1399090576 22.3049
0140 1399093017 23.0754
0141 1399095458 23.8051
0142 1399097900 22.9326
0143 1399100341 23.2784
0144 1399102783 23.2036
0145 1399105224 23.2744
0146 1399107666 22.9733
0147 1399110107 23.1686
0148 1399112548 23.4964
0149 1399114990 23.7931
0150 1399117431 23.9231
0151 1399119873 23.9724
0152 1399122314 24.0447
0153 1399124755 23.9889
0154 1399127197 23.9041
0155 1399129638 24.6770
0156 1399132080 24.8770
0157 1399134521 26.6586
0158 1399136962 26.8107
0159 1399139404 26.7328
0160 1399141845 24.9269
0161 1399144287 25.1533
0162 1399146728 25.5097
0163 1399149169 25.3015
0164 1399151611 25.5087
0165 1399154052 26.0493
0166 1399156494 25.6502
0167 1399158935 25.2813
0168 1399161376 25.8190
0169 1399163818 25.6635
0170 1399166259 26.0568
0171 1399168701 26.2107
0172 1399171142 26.0565
0173 1399173583 26.0798
0174 1399176025 26.6921
0175 1399178466 26.4783
0176 1399180908 26.2709
0177 1399183349 26.6588
0178 1399185791 26.4919
0179 1399188232 26.6863
0180 1399190673 27.7724
0181 1399193115 27.4841
0182 1399195556 26.7748
0183 1399197998 27.6476
0184 1399200439 28.6419
0185 1399202880 27.1911
0186 1399205322 27.8164
0187 1399207763 28.3781
0188 1399210205 27.4084
0189 1399212646 27.2175
0190 1399215087 27.5723
0191 1399217529 27.2783
0192 1399219970 27.7371
0193 1399222412 28.2630
0194 1399224853 27.6736
0195 1399227294 27.3852
0196 1399229736 27.5833
0197 1399232177 27.5344
0198 1399234619 27.6280
0199 1399237060 28.0294
0200 1399239501 27.9924
0201 1399241943 28.0294
0202 1399244384 29.1958
0203 1399246826 28.7049
0204 1399249267 27.9022
0205 1399251708 28.0831
0206 1399254150 28.1755
0207 1399256591 28.2441
0208 1399259033 28.4491
0209 1399261474 28.4239
0210 1399263916 28.1991
0211 1399266357 28.1221
0212 1399268798 28.7366
0213 1399271240 28.2709
0214 1399273681 29.0657
0215 1399276123 28.9443
0216 1399278564 28.3555
0217 1399281005 27.9896
0218 1399283447 28.2859
0219 1399285888 28.6876
0220 1399288330 29.2164
0221 1399290771 28.6427
0222 1399293212 28.0893
0223 1399295654 28.4048
0224 1399298095 28.6101
0225 1399300537 28.2728
0226 1399302978 28.5700
0227 1399305419 29.2492
0228 1399307861 29.4343
0229 1399310302 28.8233
0230 1399312744 29.9766
0231 1399315185 28.7539
0232 1399317626 28.3937
0233 1399320068 28.9587
0234 1399322509 28.9219
0235 1399324951 28.6865
0236 1399327392 28.9006
0237 1399329833 33.6063
0238 1399332275 30.4777
0239 1399334716 28.6870
0240 1399337158 29.0655
0241 1399339599 28.5380
0242 1399342041 28.6774
0243 1399344482 28.7971
0244 1399346923 28.5155
0245 1399349365 28.3072
0246 1399351806 28.5889
0247 1399354248 28.2434
0248 1399356689 28.3264
0249 1399359130 28.3528
0250 1399361572 28.7042
0251 1399364013 29.2270
0252 1399366455 29.4427
0253 1399368896 29.7936
0254 1399371337 29.3696
0255 1399373779 29.7412
0256 1399376220 28.6552
0257 1399378662 28.7104
0258 1399381103 29.3326
0259 1399383544 28.6155
0260 1399385986 28.4639
0261 1399388427 28.4141
0262 1399390869 28.6920
0263 1399393310 28.7119
0264 1399395751 28.4273
0265 1399398193 28.4034
0266 1399400634 28.8287
0267 1399403076 28.7362
0268 1399405517 28.7282
0269 1399407958 28.2214
0270 1399410400 28.9286
0271 1399412841 28.6156
0272 1399415283 28.1125
0273 1399417724 28.4002
0274 1399420166 28.2271
0275 1399422607 28.2699
0276 1399425048 28.6468
0277 1399427490 28.9425
0278 1399429931 28.7201
0279 1399432373 28.4901
0280 1399434814 29.1285
0281 1399437255 28.4991
0282 1399439697 28.4844
0283 1399442138 29.7136
0284 1399444580 28.3942
0285 1399447021 28.1224
0286 1399449462 28.7655
0287 1399451904 28.8536
0288 1399454345 28.3250
0289 1399456787 28.4022
0290 1399459228 28.4115
0291 1399461669 28.3744
0292 1399464111 28.6856
0293 1399466552 28.1471
0294 1399468994 27.9322
0295 1399471435 28.2122
0296 1399473876 28.9486
0297 1399476318 28.0919
0298 1399478759 28.1607
0299 1399481201 28.1232
0300 1399483642 28.1170
0301 1399486083 28.3124
0302 1399488525 28.5964
0303 1399490966 27.9266
0304 1399493408 28.7435
0305 1399495849 28.7076
0306 1399498291 28.5234
0307 1399500732 29.2589
0308 1399503173 28.9861
0309 1399505615 28.3578
0310 1399508056 28.0223
0311 1399510498 28.2622
0312 1399512939 27.9919
0313 1399515380 28.1099
0314 1399517822 28.5226
0315 1399520263 27.9702
0316 1399522705 28.2066
0317 1399525146 28.7636
0318 1399527587 28.3254
0319 1399530029 28.3047
0320 1399532470 28.7686
0321 1399534912 28.2821
0322 1399537353 28.1960
0323 1399539794 28.4320
0324 1399542236 28.0798
0325 1399544677 28.0630
0326 1399547119 28.4207
0327 1399549560 28.5337
0328 1399552001 28.0163
0329 1399554443 29.0742
0330 1399556884 29.8119
0331 1399559326 28.5993
0332 1399561767 29.2394
0333 1399564208 30.6759
0334 1399566650 28.5445
0335 1399569091 28.5929
0336 1399571533 29.0448
0337 1399573974 28.3093
0338 1399576416 28.1904
0339 1399578857 28.5985
0340 1399581298 28.2183
0341 1399583740 28.5869
0342 1399586181 28.9755
0343 1399588623 29.0939
0344 1399591064 28.7675
0345 1399593505 29.1428
0346 1399595947 28.9372
0347 1399598388 28.8442
0348 1399600830 28.9131
0349 1399603271 29.2221
0350 1399605712 29.2347
0351 1399608154 29.1133
0352 1399610595 29.1729
0353 1399613037 28.7842
0354 1399615478 29.1177
0355 1399617919 29.2829
0356 1399620361 29.7563
0357 1399622802 30.1847
0358 1399625244 30.9968
0359 1399627685 29.1063
0360 1399630126 29.2668
0361 1399632568 29.8871
0362 1399635009 28.7492
0363 1399637451 29.4087
0364 1399639892 29.1957
0365 1399642333 28.9995
0366 1399644775 29.2452
0367 1399647216 29.8067
0368 1399649658 29.5768
0369 1399652099 29.8257
0370 1399654541 29.8843
0371 1399656982 29.6533
0372 1399659423 29.2846
0373 1399661865 29.6437
0374 1399664306 29.4409
0375 1399666748 29.7024
0376 1399669189 30.2835
0377 1399671630 30.1562
0378 1399674072 29.9154
0379 1399676513 33.5792
0380 1399678955 32.2590
0381 1399681396 30.3831
0382 1399683837 32.0685
0383 1399686279 32.2226
0384 1399688720 30.0822
0385 1399691162 30.1030
0386 1399693603 31.0080
0387 1399696044 30.2076
0388 1399698486 30.8182
0389 1399700927 30.8410
0390 1399703369 30.6047
0391 1399705810 30.5009
0392 1399708251 30.5874
0393 1399710693 30.2560
0394 1399713134 30.7003
0395 1399715576 31.3870
0396 1399718017 31.0184
0397 1399720458 31.4581
0398 1399722900 31.5936
0399 1399725341 30.8924
0400 1399727783 31.2460
0401 1399730224 31.3448
0402 1399732666 31.0162
0403 1399735107 31.1878
0404 1399737548 31.7293
0405 1399739990 31.1091
0406 1399742431 31.2911
0407 1399744873 33.2361
0408 1399747314 33.3635
0409 1399749755 36.2322
0410 1399752197 33.9989
0411 1399754638 32.0102
0412 1399757080 31.8535
0413 1399759521 31.9561
0414 1399761962 31.3956
0415 1399764404 31.4981
0416 1399766845 32.1979
0417 1399769287 32.0461
0418 1399771728 31.7823
0419 1399774169 32.1856
0420 1399776611 33.2021
0421 1399779052 32.7757
0422 1399781494 32.0329
0423 1399783935 31.8277
0424 1399786376 32.4401
0425 1399788818 32.8990
0426 1399791259 34.4268
0427 1399793701 37.4673
0428 1399796142 32.8291
0429 1399798583 33.6483
0430 1399801025 33.2271
0431 1399803466 32.8339
0432 1399805908 33.6241
0433 1399808349 34.2089
0434 1399810791 33.3270
0435 1399813232 33.3200
0436 1399815673 33.0762
0437 1399818115 32.7979
0438 1399820556 33.4368
0439 1399822998 33.5518
0440 1399825439 33.2116
0441 1399827880 33.6416
0442 1399830322 33.8563
0443 1399832763 33.0155
0444 1399835205 33.4205
0445 1399837646 33.4677
0446 1399840087 33.8922
0447 1399842529 33.6568
0448 1399844970 35.3908
0449 1399847412 34.8808
0450 1399849853 33.6070
0451 1399852294 33.8373
0452 1399854736 33.9549
0453 1399857177 34.4359
0454 1399859619 35.0108
0455 1399862060 34.2109
0456 1399864501 34.1954
0457 1399866943 36.6255
0458 1399869384 35.1394
0459 1399871826 34.4288
0460 1399874267 34.7457
0461 1399876708 34.2886
0462 1399879150 34.3672
0463 1399881591 34.5800
0464 1399884033 34.6984
0465 1399886474 34.6355
0466 1399888916 35.2787
0467 1399891357 34.4270
0468 1399893798 34.6126
0469 1399896240 61.2753
0470 1399898681 68.3847
0471 1399901123 35.7879
0472 1399903564 35.5632
0473 1399906005 35.2999
0474 1399908447 34.7858
0475 1399910888 34.7072
0476 1399913330 36.4646
0477 1399915771 36.2299
0478 1399918212 35.6616
0479 1399920654 36.1093
0480 1399923095 36.1186
0481 1399925537 35.7512
0482 1399927978 36.5306
0483 1399930419 36.1371
0484 1399932861 36.3471
0485 1399935302 36.6806
0486 1399937744 36.0944
0487 1399940185 36.3298
0488 1399942626 36.1838
0489 1399945068 36.1906
0490 1399947509 36.3411
0491 1399949951 36.3097
0492 1399952392 36.2078
0493 1399954833 36.3695
0494 1399957275 37.1086
0495 1399959716 36.7283
0496 1399962158 36.8062
0497 1399964599 36.9764
0498 1399967041 37.3706
0499 1399969482 36.6928
0500 1399971923 37.8780
0501 1399974365 42.0441
0502 1399976806 47.0974
0503 1399979248 60.8980
0504 1399981689 43.1706
0505 1399984130 39.6757
0506 1399986572 61.2138
0507 1399989013 82.5971
0508 1399991455 58.9868
0509 1399993896 54.3540
0510 1399996337 412.3957
0511 1399998779 660.6734
0512 1400001220 75.8653
0513 1400003662 45.5702
0514 1400006103 43.1101
0515 1400008544 40.1692
0516 1400010986 40.7707
0517 1400013427 46.3818
0518 1400015869 47.8416
0519 1400018310 38.2263
0520 1400020751 41.5255
0521 1400023193 43.3778
0522 1400025634 38.2966
0523 1400028076 37.8135
0524 1400030517 37.2423
0525 1400032958 37.2579
0526 1400035400 37.1624
0527 1400037841 37.7599
0528 1400040283 38.1799
0529 1400042724 37.4285
0530 1400045166 36.6985
0531 1400047607 38.7661
0532 1400050048 37.6684
0533 1400052490 35.8030
0534 1400054931 36.8028
0535 1400057373 36.3337
0536 1400059814 36.2810
0537 1400062255 35.7029
0538 1400064697 35.6166
0539 1400067138 35.7032
0540 1400069580 36.0002
0541 1400072021 36.5020
0542 1400074462 35.8752
0543 1400076904 35.2341
0544 1400079345 35.6374
0545 1400081787 35.0330
0546 1400084228 35.9120
0547 1400086669 37.8157
0548 1400089111 35.8279
0549 1400091552 35.1426
0550 1400093994 35.7910
0551 1400096435 35.1703
0552 1400098876 34.9326
0553 1400101318 35.1573
0554 1400103759 35.4599
0555 1400106201 35.2765
0556 1400108642 40.7912
0557 1400111083 37.8329
0558 1400113525 35.1023
0559 1400115966 35.0824
0560 1400118408 34.6957
0561 1400120849 34.2979
0562 1400123291 35.1933
0563 1400125732 35.1939
0564 1400128173 35.1408
0565 1400130615 34.3037
0566 1400133056 34.3489
0567 1400135498 34.3854
0568 1400137939 33.8927
0569 1400140380 34.1094
0570 1400142822 34.2007
0571 1400145263 34.1587
0572 1400147705 34.6759
0573 1400150146 33.9884
0574 1400152587 34.2521
0575 1400155029 35.2032
0576 1400157470 34.6630
0577 1400159912 34.4923
0578 1400162353 35.9857
0579 1400164794 35.0571
0580 1400167236 34.4030
0581 1400169677 34.8042
0582 1400172119 34.2842
0583 1400174560 33.4646
0584 1400177001 33.7592
0585 1400179443 33.5447
0586 1400181884 33.7061
0587 1400184326 33.6902
0588 1400186767 35.4382
0589 1400189208 33.3563
0590 1400191650 33.4780
0591 1400194091 33.7746
0592 1400196533 33.2516
0593 1400198974 33.0228
0594 1400201416 33.2602
0595 1400203857 33.0277
0596 1400206298 32.9136
0597 1400208740 33.5599
0598 1400211181 33.2878
0599 1400213623 32.8320
0600 1400216064 33.4991
0601 1400218505 33.1191
0602 1400220947 32.2748
0603 1400223388 33.1683
0604 1400225830 32.5139
0605 1400228271 32.2911
0606 1400230712 32.5790
0607 1400233154 32.4164
0608 1400235595 32.3780
0609 1400238037 32.1927
0610 1400240478 32.3322
0611 1400242919 31.9813
0612 1400245361 32.4146
0613 1400247802 32.0427
0614 1400250244 31.9918
0615 1400252685 32.3515
0616 1400255126 32.7312
0617 1400257568 33.2349
0618 1400260009 36.5148
0619 1400262451 32.3648
0620 1400264892 31.2858
0621 1400267333 31.4653
0622 1400269775 31.8207
0623 1400272216 31.4207
0624 1400274658 31.5448
0625 1400277099 32.5967
0626 1400279541 31.6089
0627 1400281982 31.9581
0628 1400284423 33.6702
0629 1400286865 31.8721
0630 1400289306 31.2134
0631 1400291748 33.1192
0632 1400294189 31.5306
0633 1400296630 30.5711
0634 1400299072 30.9282
0635 1400301513 31.7880
0636 1400303955 34.3055
0637 1400306396 31.8167
0638 1400308837 31.0535
0639 1400311279 30.5409
0640 1400313720 30.7413
0641 1400316162 30.9226
0642 1400318603 30.5022
0643 1400321044 31.2046
0644 1400323486 31.1893
0645 1400325927 30.2345
0646 1400328369 30.8236
0647 1400330810 30.8037
0648 1400333251 30.5808
0649 1400335693 30.4376
0650 1400338134 30.6248
0651 1400340576 30.6001
0652 1400343017 31.4630
0653 1400345458 31.6493
0654 1400347900 30.1309
0655 1400350341 30.2063
0656 1400352783 31.2576
0657 1400355224 30.4778
0658 1400357666 30.2011
0659 1400360107 30.1085
0660 1400362548 30.0908
0661 1400364990 29.7662
0662 1400367431 29.7958
0663 1400369873 29.9345
0664 1400372314 29.8315
0665 1400374755 30.0199
0666 1400377197 30.6959
0667 1400379638 31.3416
0668 1400382080 29.9002
0669 1400384521 29.8983
0670 1400386962 30.3417
0671 1400389404 30.6722
0672 1400391845 30.2440
0673 1400394287 29.8939
0674 1400396728 29.9752
0675 1400399169 30.2471
0676 1400401611 29.9561
0677 1400404052 29.8491
0678 1400406494 30.2470
0679 1400408935 29.5556
0680 1400411376 30.0739
0681 1400413818 32.2994
0682 1400416259 30.3138
0683 1400418701 29.5076
0684 1400421142 29.8323
0685 1400423583 29.4264
0686 1400426025 29.2339
0687 1400428466 29.4625
0688 1400430908 29.8074
0689 1400433349 29.3079
0690 1400435791 29.6904
0691 1400438232 29.6112
0692 1400440673 29.2683
0693 1400443115 29.7342
0694 1400445556 29.3976
0695 1400447998 29.0629
0696 1400450439 29.4020
0697 1400452880 29.4042
0698 1400455322 29.2065
0699 1400457763 29.6764
0700 1400460205 29.2626
0701 1400462646 29.2732
0702 1400465087 30.3380
0703 1400467529 30.4631
0704 1400469970 29.5657
0705 1400472412 30.0499
0706 1400474853 31.6289
0707 1400477294 29.8394
0708 1400479736 29.3546
0709 1400482177 29.7502
0710 1400484619 29.5604
0711 1400487060 29.4183
0712 1400489501 29.9063
0713 1400491943 29.2327
0714 1400494384 29.4147
0715 1400496826 31.1198
0716 1400499267 31.1107
0717 1400501708 29.7228
0718 1400504150 30.1861
0719 1400506591 30.0154
0720 1400509033 29.6410
0721 1400511474 29.7655
0722 1400513916 29.6968
0723 1400516357 29.6601
0724 1400518798 29.9824
0725 1400521240 29.9336
0726 1400523681 30.1533
0727 1400526123 30.6909
0728 1400528564 29.9604
0729 1400531005 29.6365
0730 1400533447 30.5462
0731 1400535888 31.3441
0732 1400538330 30.5248
0733 1400540771 30.2604
0734 1400543212 30.6063
0735 1400545654 29.6285
0736 1400548095 29.9321
0737 1400550537 30.1347
0738 1400552978 29.5948
0739 1400555419 29.9727
0740 1400557861 30.7135
0741 1400560302 30.3041
0742 1400562744 29.9882
0743 1400565185 30.0863
0744 1400567626 29.7270
0745 1400570068 30.0563
0746 1400572509 30.1600
0747 1400574951 29.9960
0748 1400577392 29.8909
0749 1400579833 30.2209
0750 1400582275 30.1538
0751 1400584716 30.0080
0752 1400587158 31.5393
0753 1400589599 30.4790
0754 1400592041 30.3885
0755 1400594482 32.8336
0756 1400596923 33.4273
0757 1400599365 30.8185
0758 1400601806 30.3712
0759 1400604248 30.4135
0760 1400606689 30.1686
0761 1400609130 30.6750
0762 1400611572 30.4667
0763 1400614013 30.3530
0764 1400616455 30.5229
0765 1400618896 30.9215
0766 1400621337 30.4443
0767 1400623779 30.8107
0768 1400626220 31.0715
0769 1400628662 30.5560
0770 1400631103 30.3182
0771 1400633544 30.5056
0772 1400635986 30.0962
0773 1400638427 30.4663
0774 1400640869 31.3366
0775 1400643310 30.5336
0776 1400645751 30.7889
0777 1400648193 31.5684
0778 1400650634 30.7785
0779 1400653076 30.6238
0780 1400655517 30.8008
0781 1400657958 31.1491
0782 1400660400 30.3824
0783 1400662841 30.6861
0784 1400665283 30.7761
0785 1400667724 30.0550
0786 1400670166 31.1781
0787 1400672607 37.4258
0788 1400675048 49.8828
0789 1400677490 32.1718
0790 1400679931 30.5107
0791 1400682373 30.1377
0792 1400684814 30.3560
0793 1400687255 30.8238
0794 1400689697 30.4989
0795 1400692138 35.3692
0796 1400694580 39.3309
0797 1400697021 33.0012
0798 1400699462 30.4815
0799 1400701904 30.4626
0800 1400704345 30.3798
0801 1400706787 30.5683
0802 1400709228 31.3016
0803 1400711669 30.3321
0804 1400714111 30.4970
0805 1400716552 33.0104
0806 1400718994 31.4610
0807 1400721435 30.0195
0808 1400723876 30.4428
0809 1400726318 30.2828
0810 1400728759 30.3415
0811 1400731201 30.4850
0812 1400733642 30.1161
0813 1400736083 29.9239
0814 1400738525 30.2036
0815 1400740966 30.2178
0816 1400743408 29.8007
0817 1400745849 30.2637
0818 1400748291 30.9239
0819 1400750732 29.7858
0820 1400753173 30.0072
0821 1400755615 29.9398
0822 1400758056 29.8949
0823 1400760498 29.8337
0824 1400762939 29.8859
0825 1400765380 29.6977
0826 1400767822 31.7237
0827 1400770263 31.5673
0828 1400772705 29.7717
0829 1400775146 29.4849
0830 1400777587 31.3729
0831 1400780029 29.9429
0832 1400782470 29.2472
0833 1400784912 29.2727
0834 1400787353 29.3086
0835 1400789794 29.3852
0836 1400792236 29.4210
0837 1400794677 29.3310
0838 1400797119 29.0786
0839 1400799560 29.2404
0840 1400802001 28.7806
0841 1400804443 28.7425
0842 1400806884 28.7299
0843 1400809326 28.8528
0844 1400811767 28.5885
0845 1400814208 28.7815
0846 1400816650 28.6445
0847 1400819091 28.1410
0848 1400821533 29.0525
0849 1400823974 29.7638
0850 1400826416 28.1120
0851 1400828857 28.5549
0852 1400831298 28.1853
0853 1400833740 27.6443
0854 1400836181 28.1393
0855 1400838623 28.8142
0856 1400841064 27.9046
0857 1400843505 27.9540
0858 1400845947 27.8236
0859 1400848388 27.4789
0860 1400850830 27.2863
0861 1400853271 27.7656
0862 1400855712 27.1549
0863 1400858154 26.8727
0864 1400860595 26.9095
0865 1400863037 26.8859
0866 1400865478 26.6976
0867 1400867919 26.6897
0868 1400870361 26.5774
0869 1400872802 26.6495
0870 1400875244 26.6104
0871 1400877685 26.5627
0872 1400880126 26.1587
0873 1400882568 26.1827
0874 1400885009 26.4178
0875 1400887451 30.0044
0876 1400889892 27.7292
0877 1400892333 25.7635
0878 1400894775 25.5367
0879 1400897216 25.7058
0880 1400899658 26.1773
0881 1400902099 25.0351
0882 1400904541 25.0359
0883 1400906982 24.8814
0884 1400909423 24.4569
0885 1400911865 24.4110
0886 1400914306 24.4082
0887 1400916748 24.2879
0888 1400919189 23.9925
0889 1400921630 24.2000
0890 1400924072 24.2164
0891 1400926513 24.2592
0892 1400928955 24.3898
0893 1400931396 23.5672
0894 1400933837 23.1235
0895 1400936279 22.9982
0896 1400938720 22.8200
0897 1400941162 22.7350
0898 1400943603 23.4574
0899 1400946044 22.9454
0900 1400948486 22.2407
0901 1400950927 22.9243
0902 1400953369 22.2169
0903 1400955810 21.5680
0904 1400958251 22.3655
0905 1400960693 22.6711
0906 1400963134 21.5317
0907 1400965576 22.2099
0908 1400968017 21.3080
0909 1400970458 20.9120
0910 1400972900 20.7242
0911 1400975341 20.8285
0912 1400977783 20.4977
0913 1400980224 20.1640
0914 1400982666 19.9015
0915 1400985107 19.6464
0916 1400987548 19.8180
0917 1400989990 19.6807
0918 1400992431 19.4907
0919 1400994873 19.1701
0920 1400997314 18.7969
0921 1400999755 18.7565
0922 1401002197 18.5078
0923 1401004638 18.3320
0924 1401007080 18.0953
0925 1401009521 18.1324
0926 1401011962 18.1405
0927 1401014404 17.5324
0928 1401016845 17.3194
0929 1401019287 17.3844
0930 1401021728 17.4277
0931 1401024169 16.9906
0932 1401026611 16.8693
0933 1401029052 16.7543
0934 1401031494 16.1556
0935 1401033935 15.9978
0936 1401036376 15.8854
0937 1401038818 15.8578
0938 1401041259 15.4884
0939 1401043701 15.6641
0940 1401046142 15.0452
0941 1401048583 14.8842
0942 1401051025 14.7396
0943 1401053466 14.5811
0944 1401055908 14.4661
0945 1401058349 14.2784
0946 1401060791 14.1113
0947 1401063232 14.0380
0948 1401065673 14.1219
0949 1401068115 13.6544
0950 1401070556 13.6023
0951 1401072998 13.4224
0952 1401075439 13.0765
0953 1401077880 12.8455
0954 1401080322 13.2635
0955 1401082763 13.3326
0956 1401085205 12.6638
0957 1401087646 12.5530
0958 1401090087 12.1409
0959 1401092529 12.0414
0960 1401094970 11.8433
0961 1401097412 12.1400
0962 1401099853 11.5605
0963 1401102294 11.3896
0964 1401104736 11.2001
0965 1401107177 11.0751
0966 1401109619 10.8014
0967 1401112060 10.6693
0968 1401114501 10.6442
0969 1401116943 10.5088
0970 1401119384 10.3950
0971 1401121826 10.2808
0972 1401124267 10.2952
0973 1401126708 10.1916
0974 1401129150 9.9561
0975 1401131591 9.7906
0976 1401134033 9.9385
0977 1401136474 9.4071
0978 1401138916 9.2186
0979 1401141357 9.4527
0980 1401143798 9.1064
0981 1401146240 8.9713
0982 1401148681 9.0299
0983 1401151123 8.7582
0984 1401153564 8.5648
0985 1401156005 8.5343
0986 1401158447 8.4649
0987 1401160888 8.2984
0988 1401163330 8.3322
0989 1401165771 8.1364
0990 1401168212 7.9596
0991 1401170654 7.9206
0992 1401173095 7.8633
0993 1401175537 7.7452
0994 1401177978 7.7963
0995 1401180419 7.7279
0996 1401182861 7.4625
0997 1401185302 7.3802
0998 1401187744 7.6839
0999 1401190185 7.3746
1000 1401192626 7.2942
1001 1401195068 7.6362
1002 1401197509 10.9250
1003 1401199951 8.4880
1004 1401202392 7.3179
1005 1401204833 6.9295
1006 1401207275 6.7372
1007 1401209716 6.7164
1008 1401212158 6.7423
1009 1401214599 6.7860
1010 1401217041 6.5658
1011 1401219482 6.4360
1012 1401221923 6.4561
1013 1401224365 6.5203
1014 1401226806 6.4017
1015 1401229248 6.3354
1016 1401231689 6.3091
1017 1401234130 6.3226
1018 1401236572 6.2873
1019 1401239013 6.2684
1020 1401241455 6.2880
1021 1401243896 6.2776
1022 1401246337 6.2973
1023 1401248779 6.2996
