# File: 20-05-31T225252.ast
# NOTEA     = None Attached.  RTLSDR Dongle Test
# NOTEB     = Spectral Integration
# OBSERVER  = Science Aficionado
# DEVICE    = rtlsdr=0
# DATADIR   = ../data/
# SITE      = None Attached.  RTLSDR Dongle Test
# CITY      = Green Bank
# REGION    = West Virginia
# COUNTRY   = US
# TELTYPE   = Bubble Wrap  Horn
# FRAME     = TOPO
# GAIN1     = 49.0
# GAIN2     = 11.0
# GAIN3     = 11.0
# GAIN4     = 0.0
# Count     = 10000
# CenterFreq= 1400000000.0
# Bandwidth = 2500000.0
# Duration  = 41.949624
# DeltaX    = 5859.375
# TSYS      = 200.0
# TRX       = 100.0
# TRMS      = 2.0
# TINT      = 1.0
# KPERC     = 100.0
# GAINFACT  = 1.0
# BUNIT     = Counts
# NCHAN     = 1024
# NSPEC     = 1
# NTIME     = 0
# NSAMPLES  = 0
# EPEAK     = 4.10875183718
# ERMS      = 0.995973393526
# EMJD      = 58568.808999981004 
# REFCHAN   = 512.0
# REFSAMPL  = 256.0
# NAVE      = 100
# NMEDIAN   = 1024
# Fft_rate  = 5000
# UTC       = 2020-05-31 22:52:52.504960
# SECONDS   =       0.0000000000 
# LST       = 10:13:04.500
# AZ        = 180.0
# EL        = 90.0
# TELLON    = -79:50:22.920
# TELLAT    = +38:25:59.160
# RA        = 10:10:40.730
# DEC       = +38:37:51.600
# GALLON    = 183:34:43.40
# GALLAT    = +54:39:51.00
# ALT_SUN   = +18:08:24.4
# AZ_SUN    = +284:12:54.9
# ETAA      = 0.8
# ETAB      = 0.99
# POLANGLE  = 0.0
# TELSIZEAM = 1.0
# TELSIZEBM = 1.0
# AST_VERS  = 05.01
0000 1398751220 6.0551
0001 1398753662 5.9360
0002 1398756103 6.0882
0003 1398758544 6.2201
0004 1398760986 6.0884
0005 1398763427 6.1463
0006 1398765869 5.9457
0007 1398768310 5.9107
0008 1398770751 6.0003
0009 1398773193 6.0812
0010 1398775634 6.2244
0011 1398778076 6.1565
0012 1398780517 6.0592
0013 1398782958 6.0469
0014 1398785400 6.1262
0015 1398787841 6.4098
0016 1398790283 6.3422
0017 1398792724 6.3490
0018 1398795166 6.6053
0019 1398797607 9.2864
0020 1398800048 7.4271
0021 1398802490 6.4864
0022 1398804931 6.4885
0023 1398807373 6.4567
0024 1398809814 6.5119
0025 1398812255 6.6516
0026 1398814697 6.6908
0027 1398817138 6.7187
0028 1398819580 6.8143
0029 1398822021 6.8679
0030 1398824462 6.9402
0031 1398826904 7.0969
0032 1398829345 7.1358
0033 1398831787 7.0966
0034 1398834228 7.3393
0035 1398836669 7.5876
0036 1398839111 7.3544
0037 1398841552 7.4714
0038 1398843994 7.6338
0039 1398846435 7.6534
0040 1398848876 7.7759
0041 1398851318 7.9023
0042 1398853759 7.9530
0043 1398856201 7.9495
0044 1398858642 8.0831
0045 1398861083 8.1998
0046 1398863525 8.2583
0047 1398865966 8.5854
0048 1398868408 8.7136
0049 1398870849 8.5927
0050 1398873291 8.8354
0051 1398875732 8.9108
0052 1398878173 9.0573
0053 1398880615 9.1857
0054 1398883056 9.2667
0055 1398885498 9.3897
0056 1398887939 9.7118
0057 1398890380 9.6856
0058 1398892822 9.7359
0059 1398895263 10.4574
0060 1398897705 10.6178
0061 1398900146 10.0846
0062 1398902587 10.1477
0063 1398905029 10.2795
0064 1398907470 10.5524
0065 1398909912 10.7448
0066 1398912353 11.0601
0067 1398914794 11.6679
0068 1398917236 11.1613
0069 1398919677 11.4110
0070 1398922119 11.2360
0071 1398924560 11.4695
0072 1398927001 11.9078
0073 1398929443 11.8960
0074 1398931884 11.9498
0075 1398934326 11.9777
0076 1398936767 12.1163
0077 1398939208 12.3826
0078 1398941650 12.4603
0079 1398944091 12.5813
0080 1398946533 12.8313
0081 1398948974 13.0443
0082 1398951416 13.1189
0083 1398953857 13.0778
0084 1398956298 13.8121
0085 1398958740 13.8402
0086 1398961181 13.6289
0087 1398963623 14.0006
0088 1398966064 14.1686
0089 1398968505 14.3252
0090 1398970947 14.6120
0091 1398973388 14.7733
0092 1398975830 14.6557
0093 1398978271 14.9846
0094 1398980712 15.0128
0095 1398983154 14.9761
0096 1398985595 15.3008
0097 1398988037 15.6634
0098 1398990478 15.5113
0099 1398992919 15.7703
0100 1398995361 15.9636
0101 1398997802 15.8170
0102 1399000244 16.0374
0103 1399002685 16.5569
0104 1399005126 16.4705
0105 1399007568 16.5640
0106 1399010009 17.2734
0107 1399012451 16.8577
0108 1399014892 16.9547
0109 1399017333 18.3566
0110 1399019775 17.6440
0111 1399022216 17.6013
0112 1399024658 18.1855
0113 1399027099 17.9837
0114 1399029541 17.8917
0115 1399031982 17.8422
0116 1399034423 18.2661
0117 1399036865 18.1275
0118 1399039306 18.8080
0119 1399041748 18.9410
0120 1399044189 18.9774
0121 1399046630 19.0735
0122 1399049072 19.4817
0123 1399051513 19.1279
0124 1399053955 19.8519
0125 1399056396 20.1709
0126 1399058837 19.6946
0127 1399061279 19.9551
0128 1399063720 20.5031
0129 1399066162 19.9507
0130 1399068603 20.5354
0131 1399071044 20.8778
0132 1399073486 20.5443
0133 1399075927 20.8878
0134 1399078369 21.7521
0135 1399080810 21.0594
0136 1399083251 21.1215
0137 1399085693 21.6222
0138 1399088134 22.0364
0139 1399090576 21.5749
0140 1399093017 22.4633
0141 1399095458 22.4344
0142 1399097900 21.7187
0143 1399100341 22.1184
0144 1399102783 22.2098
0145 1399105224 22.3125
0146 1399107666 22.3221
0147 1399110107 22.5738
0148 1399112548 22.5483
0149 1399114990 22.6811
0150 1399117431 23.0794
0151 1399119873 23.3028
0152 1399122314 23.1222
0153 1399124755 23.2754
0154 1399127197 23.3158
0155 1399129638 23.6015
0156 1399132080 23.8237
0157 1399134521 25.6057
0158 1399136962 25.9212
0159 1399139404 25.3495
0160 1399141845 23.8902
0161 1399144287 23.7314
0162 1399146728 24.3789
0163 1399149169 24.4779
0164 1399151611 24.5177
0165 1399154052 24.9409
0166 1399156494 24.4627
0167 1399158935 24.5093
0168 1399161376 24.9840
0169 1399163818 24.6892
0170 1399166259 24.4575
0171 1399168701 24.8185
0172 1399171142 25.1679
0173 1399173583 25.2037
0174 1399176025 25.1331
0175 1399178466 25.2908
0176 1399180908 25.2056
0177 1399183349 25.8444
0178 1399185791 25.4203
0179 1399188232 25.7988
0180 1399190673 26.7187
0181 1399193115 26.0613
0182 1399195556 25.5979
0183 1399197998 26.6128
0184 1399200439 27.3970
0185 1399202880 25.7933
0186 1399205322 26.1802
0187 1399207763 27.4887
0188 1399210205 26.1199
0189 1399212646 26.3002
0190 1399215087 26.4104
0191 1399217529 26.2820
0192 1399219970 26.5784
0193 1399222412 26.7678
0194 1399224853 26.4341
0195 1399227294 26.3396
0196 1399229736 26.6319
0197 1399232177 26.8600
0198 1399234619 26.6863
0199 1399237060 26.7916
0200 1399239501 26.5213
0201 1399241943 26.7749
0202 1399244384 28.1801
0203 1399246826 27.4500
0204 1399249267 26.5967
0205 1399251708 27.3617
0206 1399254150 27.1072
0207 1399256591 26.7061
0208 1399259033 27.5450
0209 1399261474 27.4071
0210 1399263916 26.8791
0211 1399266357 26.9928
0212 1399268798 27.3812
0213 1399271240 27.0422
0214 1399273681 27.8897
0215 1399276123 28.0155
0216 1399278564 26.7815
0217 1399281005 27.1368
0218 1399283447 27.1600
0219 1399285888 27.2749
0220 1399288330 27.6896
0221 1399290771 27.5334
0222 1399293212 27.1403
0223 1399295654 27.3379
0224 1399298095 27.4819
0225 1399300537 27.1636
0226 1399302978 27.4358
0227 1399305419 28.3703
0228 1399307861 28.0800
0229 1399310302 27.4909
0230 1399312744 28.7360
0231 1399315185 27.6617
0232 1399317626 27.3567
0233 1399320068 28.2448
0234 1399322509 27.8105
0235 1399324951 27.2104
0236 1399327392 27.7662
0237 1399329833 32.5162
0238 1399332275 29.4339
0239 1399334716 27.6214
0240 1399337158 28.1347
0241 1399339599 28.1271
0242 1399342041 27.5935
0243 1399344482 27.9319
0244 1399346923 27.5783
0245 1399349365 26.9304
0246 1399351806 27.5129
0247 1399354248 27.1443
0248 1399356689 27.1606
0249 1399359130 27.3084
0250 1399361572 27.4163
0251 1399364013 27.7423
0252 1399366455 28.4558
0253 1399368896 29.1153
0254 1399371337 28.1125
0255 1399373779 28.8019
0256 1399376220 27.5177
0257 1399378662 27.3589
0258 1399381103 28.1113
0259 1399383544 27.8051
0260 1399385986 27.2912
0261 1399388427 27.5258
0262 1399390869 27.9125
0263 1399393310 27.3815
0264 1399395751 27.5951
0265 1399398193 27.4602
0266 1399400634 27.7313
0267 1399403076 27.5181
0268 1399405517 27.4009
0269 1399407958 26.9015
0270 1399410400 27.4403
0271 1399412841 27.3925
0272 1399415283 27.0509
0273 1399417724 27.1137
0274 1399420166 27.4163
0275 1399422607 26.9175
0276 1399425048 27.2212
0277 1399427490 27.5807
0278 1399429931 27.2292
0279 1399432373 27.3863
0280 1399434814 28.0481
0281 1399437255 27.2136
0282 1399439697 27.5570
0283 1399442138 28.6632
0284 1399444580 27.3293
0285 1399447021 26.8722
0286 1399449462 27.6513
0287 1399451904 27.6422
0288 1399454345 26.9533
0289 1399456787 27.1756
0290 1399459228 27.0266
0291 1399461669 27.0027
0292 1399464111 27.3841
0293 1399466552 26.8853
0294 1399468994 26.6338
0295 1399471435 27.2547
0296 1399473876 27.5645
0297 1399476318 27.1292
0298 1399478759 27.2340
0299 1399481201 26.9993
0300 1399483642 26.7142
0301 1399486083 27.2531
0302 1399488525 27.3672
0303 1399490966 27.2898
0304 1399493408 27.2737
0305 1399495849 27.8950
0306 1399498291 27.4856
0307 1399500732 28.6269
0308 1399503173 28.0638
0309 1399505615 27.1676
0310 1399508056 26.7457
0311 1399510498 27.1479
0312 1399512939 26.7934
0313 1399515380 26.6845
0314 1399517822 27.1849
0315 1399520263 26.8674
0316 1399522705 27.0388
0317 1399525146 27.4764
0318 1399527587 27.2285
0319 1399530029 27.1469
0320 1399532470 27.2097
0321 1399534912 27.0052
0322 1399537353 27.0674
0323 1399539794 27.5712
0324 1399542236 27.1843
0325 1399544677 27.1997
0326 1399547119 27.4933
0327 1399549560 27.4336
0328 1399552001 27.0783
0329 1399554443 28.0617
0330 1399556884 28.5030
0331 1399559326 27.4032
0332 1399561767 28.2667
0333 1399564208 30.0906
0334 1399566650 27.4280
0335 1399569091 27.0219
0336 1399571533 27.8076
0337 1399573974 27.1029
0338 1399576416 27.0620
0339 1399578857 27.4142
0340 1399581298 27.2183
0341 1399583740 27.2431
0342 1399586181 27.9399
0343 1399588623 27.8713
0344 1399591064 27.6850
0345 1399593505 28.2991
0346 1399595947 27.8693
0347 1399598388 27.1503
0348 1399600830 27.8688
0349 1399603271 27.9429
0350 1399605712 27.4928
0351 1399608154 27.7800
0352 1399610595 27.3474
0353 1399613037 27.4658
0354 1399615478 28.2444
0355 1399617919 28.2810
0356 1399620361 28.7944
0357 1399622802 29.3700
0358 1399625244 30.0098
0359 1399627685 27.9962
0360 1399630126 28.0601
0361 1399632568 28.5831
0362 1399635009 28.1656
0363 1399637451 28.0315
0364 1399639892 28.1960
0365 1399642333 27.8402
0366 1399644775 28.2389
0367 1399647216 28.8456
0368 1399649658 28.4261
0369 1399652099 29.2182
0370 1399654541 28.7461
0371 1399656982 28.0756
0372 1399659423 28.2885
0373 1399661865 28.4062
0374 1399664306 28.4827
0375 1399666748 28.6408
0376 1399669189 28.8675
0377 1399671630 28.7339
0378 1399674072 28.7107
0379 1399676513 30.9088
0380 1399678955 30.1475
0381 1399681396 29.6072
0382 1399683837 31.4288
0383 1399686279 30.9903
0384 1399688720 28.9628
0385 1399691162 29.0015
0386 1399693603 29.4077
0387 1399696044 28.7478
0388 1399698486 29.2344
0389 1399700927 29.3168
0390 1399703369 28.8591
0391 1399705810 29.0679
0392 1399708251 29.1503
0393 1399710693 28.9762
0394 1399713134 29.7701
0395 1399715576 30.0030
0396 1399718017 29.4800
0397 1399720458 30.3825
0398 1399722900 30.0384
0399 1399725341 29.5575
0400 1399727783 29.8558
0401 1399730224 29.8133
0402 1399732666 29.1668
0403 1399735107 29.5676
0404 1399737548 30.4203
0405 1399739990 29.9183
0406 1399742431 29.9010
0407 1399744873 31.5133
0408 1399747314 32.0527
0409 1399749755 33.0256
0410 1399752197 31.9336
0411 1399754638 30.3474
0412 1399757080 30.9226
0413 1399759521 31.1524
0414 1399761962 30.3570
0415 1399764404 30.4995
0416 1399766845 30.6701
0417 1399769287 30.6059
0418 1399771728 30.4313
0419 1399774169 30.4118
0420 1399776611 31.5330
0421 1399779052 31.3198
0422 1399781494 30.6238
0423 1399783935 30.6763
0424 1399786376 30.8154
0425 1399788818 30.9707
0426 1399791259 32.8900
0427 1399793701 35.9265
0428 1399796142 31.4789
0429 1399798583 31.7816
0430 1399801025 31.2252
0431 1399803466 31.3979
0432 1399805908 32.5958
0433 1399808349 32.5126
0434 1399810791 31.6777
0435 1399813232 32.2004
0436 1399815673 31.6566
0437 1399818115 31.5192
0438 1399820556 31.8298
0439 1399822998 32.1615
0440 1399825439 31.8858
0441 1399827880 31.9824
0442 1399830322 32.3201
0443 1399832763 31.5360
0444 1399835205 31.7117
0445 1399837646 32.1841
0446 1399840087 32.4750
0447 1399842529 32.3942
0448 1399844970 33.6236
0449 1399847412 32.9182
0450 1399849853 32.3478
0451 1399852294 32.5587
0452 1399854736 32.3553
0453 1399857177 33.1569
0454 1399859619 33.8077
0455 1399862060 32.4094
0456 1399864501 32.7636
0457 1399866943 34.7558
0458 1399869384 33.5441
0459 1399871826 33.3499
0460 1399874267 33.2245
0461 1399876708 32.7030
0462 1399879150 32.8170
0463 1399881591 33.4744
0464 1399884033 33.2486
0465 1399886474 33.0919
0466 1399888916 33.6631
0467 1399891357 33.1331
0468 1399893798 33.3095
0469 1399896240 56.7953
0470 1399898681 62.7298
0471 1399901123 34.2296
0472 1399903564 34.1926
0473 1399906005 33.5767
0474 1399908447 33.4017
0475 1399910888 33.5660
0476 1399913330 35.1180
0477 1399915771 34.6723
0478 1399918212 33.8301
0479 1399920654 33.9008
0480 1399923095 33.9526
0481 1399925537 33.9510
0482 1399927978 34.8912
0483 1399930419 35.4409
0484 1399932861 36.2382
0485 1399935302 35.7539
0486 1399937744 34.2218
0487 1399940185 34.4530
0488 1399942626 34.5136
0489 1399945068 34.2716
0490 1399947509 35.0474
0491 1399949951 34.8998
0492 1399952392 34.9709
0493 1399954833 34.6838
0494 1399957275 35.5338
0495 1399959716 35.1852
0496 1399962158 34.8560
0497 1399964599 35.0200
0498 1399967041 35.7068
0499 1399969482 35.3292
0500 1399971923 36.1908
0501 1399974365 38.9787
0502 1399976806 44.6722
0503 1399979248 59.9548
0504 1399981689 42.9546
0505 1399984130 38.6521
0506 1399986572 59.0378
0507 1399989013 78.1718
0508 1399991455 57.2460
0509 1399993896 51.4828
0510 1399996337 340.8687
0511 1399998779 555.0493
0512 1400001220 68.6250
0513 1400003662 42.5823
0514 1400006103 40.2684
0515 1400008544 38.2974
0516 1400010986 38.6303
0517 1400013427 41.5966
0518 1400015869 41.9365
0519 1400018310 36.3400
0520 1400020751 38.7201
0521 1400023193 40.7778
0522 1400025634 36.1622
0523 1400028076 35.7861
0524 1400030517 35.4037
0525 1400032958 36.0709
0526 1400035400 35.2212
0527 1400037841 35.6024
0528 1400040283 36.0750
0529 1400042724 35.4108
0530 1400045166 34.9571
0531 1400047607 37.5943
0532 1400050048 36.2303
0533 1400052490 34.3671
0534 1400054931 34.9398
0535 1400057373 34.8532
0536 1400059814 34.4426
0537 1400062255 33.9638
0538 1400064697 33.9394
0539 1400067138 33.4124
0540 1400069580 33.9740
0541 1400072021 34.4776
0542 1400074462 34.0004
0543 1400076904 33.9215
0544 1400079345 33.7556
0545 1400081787 33.6450
0546 1400084228 34.3541
0547 1400086669 36.2893
0548 1400089111 33.7215
0549 1400091552 33.9109
0550 1400093994 33.9472
0551 1400096435 33.6344
0552 1400098876 33.5383
0553 1400101318 33.4146
0554 1400103759 34.2746
0555 1400106201 33.5303
0556 1400108642 39.5156
0557 1400111083 36.7057
0558 1400113525 33.0252
0559 1400115966 33.3436
0560 1400118408 33.6892
0561 1400120849 33.0511
0562 1400123291 33.5467
0563 1400125732 33.5627
0564 1400128173 33.1159
0565 1400130615 33.0501
0566 1400133056 33.0761
0567 1400135498 32.6548
0568 1400137939 32.7894
0569 1400140380 32.6839
0570 1400142822 32.4971
0571 1400145263 32.6036
0572 1400147705 33.3528
0573 1400150146 32.8546
0574 1400152587 32.3073
0575 1400155029 33.9354
0576 1400157470 32.9537
0577 1400159912 32.8554
0578 1400162353 34.4416
0579 1400164794 33.0512
0580 1400167236 32.4206
0581 1400169677 33.1346
0582 1400172119 33.2992
0583 1400174560 32.1089
0584 1400177001 32.3933
0585 1400179443 31.7260
0586 1400181884 31.9946
0587 1400184326 31.7985
0588 1400186767 32.7347
0589 1400189208 32.4648
0590 1400191650 32.1521
0591 1400194091 32.1536
0592 1400196533 31.5445
0593 1400198974 31.5716
0594 1400201416 31.8227
0595 1400203857 31.4582
0596 1400206298 31.8737
0597 1400208740 32.1747
0598 1400211181 31.9669
0599 1400213623 31.6777
0600 1400216064 32.1160
0601 1400218505 31.5720
0602 1400220947 31.2194
0603 1400223388 31.6724
0604 1400225830 31.0414
0605 1400228271 30.6356
0606 1400230712 31.4285
0607 1400233154 31.0562
0608 1400235595 30.7649
0609 1400238037 30.7669
0610 1400240478 30.8756
0611 1400242919 30.3523
0612 1400245361 30.6635
0613 1400247802 30.9762
0614 1400250244 30.6322
0615 1400252685 30.6419
0616 1400255126 30.8911
0617 1400257568 31.3257
0618 1400260009 32.7963
0619 1400262451 30.8333
0620 1400264892 30.2220
0621 1400267333 29.9677
0622 1400269775 30.0400
0623 1400272216 30.0862
0624 1400274658 30.2493
0625 1400277099 31.0393
0626 1400279541 30.2172
0627 1400281982 30.5621
0628 1400284423 32.2964
0629 1400286865 30.3662
0630 1400289306 29.7210
0631 1400291748 31.8810
0632 1400294189 30.5238
0633 1400296630 29.5783
0634 1400299072 29.8771
0635 1400301513 30.3279
0636 1400303955 32.6274
0637 1400306396 30.1934
0638 1400308837 29.6429
0639 1400311279 29.3295
0640 1400313720 29.6920
0641 1400316162 29.7176
0642 1400318603 28.9780
0643 1400321044 29.5521
0644 1400323486 29.8631
0645 1400325927 29.3990
0646 1400328369 29.3613
0647 1400330810 29.4519
0648 1400333251 29.3840
0649 1400335693 29.3984
0650 1400338134 29.4416
0651 1400340576 29.3866
0652 1400343017 30.3372
0653 1400345458 30.6817
0654 1400347900 29.0697
0655 1400350341 28.7379
0656 1400352783 30.0274
0657 1400355224 28.8823
0658 1400357666 28.8324
0659 1400360107 28.9760
0660 1400362548 28.9223
0661 1400364990 28.8049
0662 1400367431 28.6009
0663 1400369873 28.5613
0664 1400372314 28.4844
0665 1400374755 28.6661
0666 1400377197 29.4503
0667 1400379638 30.0782
0668 1400382080 28.4849
0669 1400384521 28.4571
0670 1400386962 28.5679
0671 1400389404 29.0968
0672 1400391845 28.8877
0673 1400394287 28.0997
0674 1400396728 28.4992
0675 1400399169 29.1215
0676 1400401611 28.4236
0677 1400404052 28.6792
0678 1400406494 29.3150
0679 1400408935 28.0362
0680 1400411376 28.7212
0681 1400413818 30.6017
0682 1400416259 28.9159
0683 1400418701 28.2432
0684 1400421142 28.3455
0685 1400423583 28.1920
0686 1400426025 27.8348
0687 1400428466 28.2202
0688 1400430908 28.1096
0689 1400433349 27.6878
0690 1400435791 28.0959
0691 1400438232 27.8968
0692 1400440673 27.9162
0693 1400443115 28.3164
0694 1400445556 27.9099
0695 1400447998 27.7025
0696 1400450439 28.2434
0697 1400452880 27.7670
0698 1400455322 27.8264
0699 1400457763 28.1609
0700 1400460205 28.3944
0701 1400462646 27.8521
0702 1400465087 29.2173
0703 1400467529 29.3886
0704 1400469970 27.8328
0705 1400472412 28.4139
0706 1400474853 30.1441
0707 1400477294 28.4615
0708 1400479736 27.9087
0709 1400482177 28.1120
0710 1400484619 27.9331
0711 1400487060 28.1280
0712 1400489501 28.3147
0713 1400491943 28.0659
0714 1400494384 28.5326
0715 1400496826 30.1778
0716 1400499267 29.1708
0717 1400501708 27.8450
0718 1400504150 28.4388
0719 1400506591 28.2672
0720 1400509033 28.0307
0721 1400511474 28.2905
0722 1400513916 28.1234
0723 1400516357 27.7298
0724 1400518798 28.2070
0725 1400521240 28.4085
0726 1400523681 28.4387
0727 1400526123 29.4480
0728 1400528564 28.6401
0729 1400531005 28.2068
0730 1400533447 29.4820
0731 1400535888 29.9017
0732 1400538330 28.8385
0733 1400540771 28.5704
0734 1400543212 28.8001
0735 1400545654 28.2875
0736 1400548095 28.1579
0737 1400550537 28.6654
0738 1400552978 28.2666
0739 1400555419 28.3846
0740 1400557861 29.3630
0741 1400560302 28.6000
0742 1400562744 28.0210
0743 1400565185 28.4512
0744 1400567626 28.1254
0745 1400570068 28.5230
0746 1400572509 28.7467
0747 1400574951 28.3206
0748 1400577392 28.1975
0749 1400579833 28.6209
0750 1400582275 28.6005
0751 1400584716 28.6658
0752 1400587158 29.5029
0753 1400589599 28.8152
0754 1400592041 28.6400
0755 1400594482 30.9263
0756 1400596923 31.6417
0757 1400599365 28.8621
0758 1400601806 28.7291
0759 1400604248 28.7715
0760 1400606689 28.4961
0761 1400609130 28.7351
0762 1400611572 28.7453
0763 1400614013 28.4796
0764 1400616455 28.6090
0765 1400618896 28.9745
0766 1400621337 28.4155
0767 1400623779 28.8708
0768 1400626220 29.4884
0769 1400628662 28.9694
0770 1400631103 28.5987
0771 1400633544 28.9852
0772 1400635986 28.5509
0773 1400638427 29.0663
0774 1400640869 29.8766
0775 1400643310 29.1758
0776 1400645751 29.2965
0777 1400648193 30.4483
0778 1400650634 29.1397
0779 1400653076 28.8653
0780 1400655517 29.2286
0781 1400657958 29.1532
0782 1400660400 28.7716
0783 1400662841 29.0400
0784 1400665283 29.2186
0785 1400667724 28.6817
0786 1400670166 29.6498
0787 1400672607 35.3096
0788 1400675048 43.4640
0789 1400677490 30.5405
0790 1400679931 29.0389
0791 1400682373 28.6692
0792 1400684814 28.6484
0793 1400687255 28.7945
0794 1400689697 28.9982
0795 1400692138 33.5577
0796 1400694580 37.4885
0797 1400697021 31.6980
0798 1400699462 29.0066
0799 1400701904 28.9314
0800 1400704345 28.4552
0801 1400706787 28.9985
0802 1400709228 29.6221
0803 1400711669 28.6691
0804 1400714111 28.8767
0805 1400716552 32.0051
0806 1400718994 30.0698
0807 1400721435 28.6007
0808 1400723876 29.0818
0809 1400726318 28.8789
0810 1400728759 29.2051
0811 1400731201 29.2638
0812 1400733642 28.8669
0813 1400736083 28.6788
0814 1400738525 28.9243
0815 1400740966 28.9503
0816 1400743408 28.4227
0817 1400745849 28.9303
0818 1400748291 29.1016
0819 1400750732 27.9897
0820 1400753173 28.3927
0821 1400755615 28.2462
0822 1400758056 28.3884
0823 1400760498 28.2147
0824 1400762939 28.5584
0825 1400765380 28.2599
0826 1400767822 29.9465
0827 1400770263 29.9122
0828 1400772705 28.1605
0829 1400775146 28.1226
0830 1400777587 30.0803
0831 1400780029 28.6701
0832 1400782470 27.8230
0833 1400784912 27.8584
0834 1400787353 28.0009
0835 1400789794 27.9093
0836 1400792236 28.1495
0837 1400794677 28.1095
0838 1400797119 27.5661
0839 1400799560 27.9830
0840 1400802001 27.8040
0841 1400804443 27.1641
0842 1400806884 27.4999
0843 1400809326 27.6299
0844 1400811767 27.1624
0845 1400814208 27.4468
0846 1400816650 27.1389
0847 1400819091 27.0327
0848 1400821533 27.9565
0849 1400823974 28.2045
0850 1400826416 26.5984
0851 1400828857 27.0834
0852 1400831298 27.0470
0853 1400833740 26.3526
0854 1400836181 26.6543
0855 1400838623 27.2978
0856 1400841064 26.5194
0857 1400843505 26.3101
0858 1400845947 26.4464
0859 1400848388 25.6931
0860 1400850830 25.8655
0861 1400853271 26.3007
0862 1400855712 25.9341
0863 1400858154 25.7684
0864 1400860595 25.5286
0865 1400863037 25.3855
0866 1400865478 25.4065
0867 1400867919 25.2947
0868 1400870361 25.0079
0869 1400872802 24.9054
0870 1400875244 25.3485
0871 1400877685 25.0655
0872 1400880126 24.7343
0873 1400882568 24.8688
0874 1400885009 24.7220
0875 1400887451 27.7752
0876 1400889892 26.2957
0877 1400892333 24.8097
0878 1400894775 24.0186
0879 1400897216 24.3020
0880 1400899658 25.1713
0881 1400902099 23.4461
0882 1400904541 23.4003
0883 1400906982 23.4276
0884 1400909423 23.1073
0885 1400911865 23.2347
0886 1400914306 22.9914
0887 1400916748 22.7974
0888 1400919189 22.7175
0889 1400921630 22.8716
0890 1400924072 22.5572
0891 1400926513 22.8457
0892 1400928955 23.0829
0893 1400931396 22.0474
0894 1400933837 21.9112
0895 1400936279 21.4990
0896 1400938720 21.2805
0897 1400941162 21.3760
0898 1400943603 21.6398
0899 1400946044 21.5006
0900 1400948486 21.1623
0901 1400950927 21.3358
0902 1400953369 20.8188
0903 1400955810 20.4521
0904 1400958251 20.7614
0905 1400960693 21.1814
0906 1400963134 20.4674
0907 1400965576 21.0663
0908 1400968017 19.9582
0909 1400970458 19.4882
0910 1400972900 19.7453
0911 1400975341 19.6766
0912 1400977783 19.0805
0913 1400980224 19.0062
0914 1400982666 18.6222
0915 1400985107 18.5837
0916 1400987548 18.6146
0917 1400989990 18.4717
0918 1400992431 18.0550
0919 1400994873 18.0162
0920 1400997314 17.8730
0921 1400999755 17.6928
0922 1401002197 17.4805
0923 1401004638 17.2744
0924 1401007080 17.0224
0925 1401009521 17.0598
0926 1401011962 17.3079
0927 1401014404 16.6249
0928 1401016845 16.3712
0929 1401019287 16.6076
0930 1401021728 16.4712
0931 1401024169 15.9170
0932 1401026611 16.0050
0933 1401029052 15.7983
0934 1401031494 15.3778
0935 1401033935 15.0790
0936 1401036376 14.9113
0937 1401038818 14.8370
0938 1401041259 14.9004
0939 1401043701 14.6951
0940 1401046142 14.1988
0941 1401048583 14.1565
0942 1401051025 14.0702
0943 1401053466 13.9550
0944 1401055908 13.8083
0945 1401058349 13.5030
0946 1401060791 13.2931
0947 1401063232 13.3305
0948 1401065673 13.3553
0949 1401068115 12.9586
0950 1401070556 12.9709
0951 1401072998 12.7935
0952 1401075439 12.5177
0953 1401077880 12.2421
0954 1401080322 12.7489
0955 1401082763 12.6816
0956 1401085205 11.8339
0957 1401087646 11.7426
0958 1401090087 11.6029
0959 1401092529 11.4895
0960 1401094970 11.2711
0961 1401097412 11.4140
0962 1401099853 11.1372
0963 1401102294 10.9247
0964 1401104736 10.7152
0965 1401107177 10.5308
0966 1401109619 10.4213
0967 1401112060 10.2819
0968 1401114501 10.0794
0969 1401116943 10.0929
0970 1401119384 9.9112
0971 1401121826 9.8456
0972 1401124267 9.7451
0973 1401126708 9.8171
0974 1401129150 9.5224
0975 1401131591 9.4724
0976 1401134033 9.6192
0977 1401136474 9.0894
0978 1401138916 8.9128
0979 1401141357 8.9591
0980 1401143798 8.7585
0981 1401146240 8.5803
0982 1401148681 8.6411
0983 1401151123 8.4691
0984 1401153564 8.1863
0985 1401156005 8.2006
0986 1401158447 8.0697
0987 1401160888 7.8802
0988 1401163330 7.9646
0989 1401165771 7.8077
0990 1401168212 7.5905
0991 1401170654 7.6603
0992 1401173095 7.6328
0993 1401175537 7.3496
0994 1401177978 7.4721
0995 1401180419 7.3609
0996 1401182861 7.1883
0997 1401185302 7.1488
0998 1401187744 7.3289
0999 1401190185 7.1088
1000 1401192626 7.0146
1001 1401195068 7.1431
1002 1401197509 9.8554
1003 1401199951 8.0097
1004 1401202392 7.0540
1005 1401204833 6.7117
1006 1401207275 6.5783
1007 1401209716 6.4986
1008 1401212158 6.4108
1009 1401214599 6.4888
1010 1401217041 6.3061
1011 1401219482 6.2527
1012 1401221923 6.2865
1013 1401224365 6.2590
1014 1401226806 6.1747
1015 1401229248 6.1043
1016 1401231689 6.0731
1017 1401234130 6.0359
1018 1401236572 6.0467
1019 1401239013 6.0626
1020 1401241455 6.0417
1021 1401243896 6.0222
1022 1401246337 6.0197
1023 1401248779 6.0643
