# File: 20-05-31T224106.ast
# NOTEA     = None Attached.  RTLSDR Dongle Test
# NOTEB     = Spectral Integration
# OBSERVER  = Science Aficionado
# DEVICE    = rtlsdr=0
# DATADIR   = ../data/
# SITE      = None Attached.  RTLSDR Dongle Test
# CITY      = Green Bank
# REGION    = West Virginia
# COUNTRY   = US
# TELTYPE   = Bubble Wrap  Horn
# FRAME     = TOPO
# GAIN1     = 49.0
# GAIN2     = 11.0
# GAIN3     = 11.0
# GAIN4     = 0.0
# Count     = 10000
# CenterFreq= 1400000000.0
# Bandwidth = 2500000.0
# Duration  = 41.766373
# DeltaX    = 5859.375
# TSYS      = 200.0
# TRX       = 100.0
# TRMS      = 2.0
# TINT      = 1.0
# KPERC     = 100.0
# GAINFACT  = 1.0
# BUNIT     = Counts
# NCHAN     = 1024
# NSPEC     = 1
# NTIME     = 0
# NSAMPLES  = 0
# EPEAK     = 4.10875183718
# ERMS      = 0.995973393526
# EMJD      = 58568.808999981004 
# REFCHAN   = 512.0
# REFSAMPL  = 256.0
# NAVE      = 100
# NMEDIAN   = 1024
# Fft_rate  = 5000
# UTC       = 2020-05-31 22:41:06.539113
# SECONDS   =       0.0000000000 
# LST       = 10:01:16.610
# AZ        = 180.0
# EL        = 90.0
# TELLON    = -79:50:22.920
# TELLAT    = +38:25:59.160
# RA        = 09:58:50.970
# DEC       = +38:37:31.700
# GALLON    = 183:58:24.30
# GALLAT    = +52:21:57.20
# ALT_SUN   = +20:22:30.2
# AZ_SUN    = +282:34:18.4
# ETAA      = 0.8
# ETAB      = 0.99
# POLANGLE  = 0.0
# TELSIZEAM = 1.0
# TELSIZEBM = 1.0
# AST_VERS  = 05.01
0000 1398751220 6.5435
0001 1398753662 6.5520
0002 1398756103 6.5430
0003 1398758544 6.9165
0004 1398760986 7.1473
0005 1398763427 6.7202
0006 1398765869 6.5607
0007 1398768310 6.4483
0008 1398770751 6.4833
0009 1398773193 6.6312
0010 1398775634 6.8215
0011 1398778076 6.6491
0012 1398780517 6.7192
0013 1398782958 6.9037
0014 1398785400 6.8898
0015 1398787841 7.4667
0016 1398790283 6.9789
0017 1398792724 6.9357
0018 1398795166 6.9587
0019 1398797607 7.6105
0020 1398800048 7.7773
0021 1398802490 7.1455
0022 1398804931 7.1569
0023 1398807373 7.0789
0024 1398809814 7.1821
0025 1398812255 7.4097
0026 1398814697 7.7994
0027 1398817138 7.4801
0028 1398819580 7.4675
0029 1398822021 7.6411
0030 1398824462 7.6491
0031 1398826904 7.7604
0032 1398829345 7.7895
0033 1398831787 7.7894
0034 1398834228 8.1450
0035 1398836669 8.4368
0036 1398839111 8.1692
0037 1398841552 8.1985
0038 1398843994 8.4310
0039 1398846435 8.5026
0040 1398848876 8.6536
0041 1398851318 8.7422
0042 1398853759 8.7559
0043 1398856201 8.8603
0044 1398858642 9.0544
0045 1398861083 9.0205
0046 1398863525 9.1568
0047 1398865966 9.3380
0048 1398868408 9.4827
0049 1398870849 9.5854
0050 1398873291 9.7400
0051 1398875732 9.8039
0052 1398878173 9.9006
0053 1398880615 10.1974
0054 1398883056 10.0924
0055 1398885498 10.6684
0056 1398887939 11.9611
0057 1398890380 10.8160
0058 1398892822 10.8369
0059 1398895263 11.8964
0060 1398897705 11.8290
0061 1398900146 11.1304
0062 1398902587 11.3239
0063 1398905029 11.4295
0064 1398907470 11.7868
0065 1398909912 11.9369
0066 1398912353 12.1423
0067 1398914794 12.8540
0068 1398917236 12.4761
0069 1398919677 12.5768
0070 1398922119 12.4583
0071 1398924560 12.8054
0072 1398927001 13.2314
0073 1398929443 13.0981
0074 1398931884 13.3448
0075 1398934326 13.3590
0076 1398936767 13.4198
0077 1398939208 13.7344
0078 1398941650 14.0780
0079 1398944091 13.8857
0080 1398946533 14.2027
0081 1398948974 14.5155
0082 1398951416 14.5964
0083 1398953857 14.6562
0084 1398956298 15.6361
0085 1398958740 15.4647
0086 1398961181 14.9891
0087 1398963623 15.4985
0088 1398966064 15.6382
0089 1398968505 15.8631
0090 1398970947 16.1057
0091 1398973388 16.0919
0092 1398975830 16.2024
0093 1398978271 16.2681
0094 1398980712 16.5817
0095 1398983154 16.7090
0096 1398985595 17.9479
0097 1398988037 20.9371
0098 1398990478 17.4732
0099 1398992919 17.2959
0100 1398995361 17.4960
0101 1398997802 17.6763
0102 1399000244 17.8932
0103 1399002685 18.3936
0104 1399005126 18.2782
0105 1399007568 18.8091
0106 1399010009 19.2298
0107 1399012451 18.6683
0108 1399014892 18.8985
0109 1399017333 20.4489
0110 1399019775 19.6881
0111 1399022216 19.4343
0112 1399024658 19.7791
0113 1399027099 19.7340
0114 1399029541 19.7960
0115 1399031982 20.3771
0116 1399034423 20.4473
0117 1399036865 20.3497
0118 1399039306 20.7919
0119 1399041748 20.7127
0120 1399044189 20.8180
0121 1399046630 21.1592
0122 1399049072 21.3132
0123 1399051513 21.3898
0124 1399053955 21.6543
0125 1399056396 21.7201
0126 1399058837 21.7578
0127 1399061279 22.1635
0128 1399063720 22.5019
0129 1399066162 22.2199
0130 1399068603 22.7143
0131 1399071044 23.2445
0132 1399073486 22.5943
0133 1399075927 22.4233
0134 1399078369 23.6978
0135 1399080810 23.1526
0136 1399083251 23.1747
0137 1399085693 24.2311
0138 1399088134 24.9346
0139 1399090576 23.6647
0140 1399093017 24.0539
0141 1399095458 24.1897
0142 1399097900 24.3379
0143 1399100341 24.6671
0144 1399102783 24.3315
0145 1399105224 24.3939
0146 1399107666 24.6920
0147 1399110107 25.0562
0148 1399112548 24.9883
0149 1399114990 25.1778
0150 1399117431 25.2228
0151 1399119873 25.5427
0152 1399122314 25.4964
0153 1399124755 25.8140
0154 1399127197 25.9555
0155 1399129638 26.3909
0156 1399132080 26.5517
0157 1399134521 26.1023
0158 1399136962 26.6642
0159 1399139404 27.2739
0160 1399141845 26.5555
0161 1399144287 26.7657
0162 1399146728 27.1191
0163 1399149169 27.1492
0164 1399151611 27.4314
0165 1399154052 27.5973
0166 1399156494 27.6074
0167 1399158935 27.3393
0168 1399161376 27.6834
0169 1399163818 27.3718
0170 1399166259 27.4292
0171 1399168701 27.8960
0172 1399171142 27.8862
0173 1399173583 28.1927
0174 1399176025 28.1104
0175 1399178466 28.0397
0176 1399180908 27.9951
0177 1399183349 28.6292
0178 1399185791 29.3872
0179 1399188232 30.4112
0180 1399190673 29.0986
0181 1399193115 28.7469
0182 1399195556 28.4396
0183 1399197998 29.0379
0184 1399200439 29.5164
0185 1399202880 28.5095
0186 1399205322 29.0653
0187 1399207763 29.5497
0188 1399210205 28.8276
0189 1399212646 29.1092
0190 1399215087 29.3785
0191 1399217529 28.9194
0192 1399219970 29.6733
0193 1399222412 30.0069
0194 1399224853 29.6734
0195 1399227294 29.2172
0196 1399229736 29.5668
0197 1399232177 29.8200
0198 1399234619 29.6568
0199 1399237060 29.7344
0200 1399239501 29.6223
0201 1399241943 29.6370
0202 1399244384 31.3364
0203 1399246826 30.5301
0204 1399249267 29.7596
0205 1399251708 29.7118
0206 1399254150 29.9602
0207 1399256591 29.9847
0208 1399259033 30.5641
0209 1399261474 29.8669
0210 1399263916 29.7068
0211 1399266357 30.0613
0212 1399268798 30.3555
0213 1399271240 30.2539
0214 1399273681 30.6003
0215 1399276123 30.9238
0216 1399278564 30.0443
0217 1399281005 29.9261
0218 1399283447 30.2556
0219 1399285888 33.6093
0220 1399288330 37.1921
0221 1399290771 30.3476
0222 1399293212 30.0724
0223 1399295654 30.0926
0224 1399298095 30.0712
0225 1399300537 30.0308
0226 1399302978 30.3011
0227 1399305419 30.8557
0228 1399307861 30.5850
0229 1399310302 30.5021
0230 1399312744 31.2172
0231 1399315185 30.9408
0232 1399317626 30.3380
0233 1399320068 30.7357
0234 1399322509 30.7922
0235 1399324951 30.1395
0236 1399327392 30.4283
0237 1399329833 30.6899
0238 1399332275 30.5602
0239 1399334716 30.5143
0240 1399337158 30.3895
0241 1399339599 30.3681
0242 1399342041 30.4455
0243 1399344482 30.9810
0244 1399346923 30.5964
0245 1399349365 30.3946
0246 1399351806 30.6304
0247 1399354248 30.4781
0248 1399356689 30.2935
0249 1399359130 30.4304
0250 1399361572 30.4611
0251 1399364013 30.3764
0252 1399366455 31.0376
0253 1399368896 30.7409
0254 1399371337 30.6999
0255 1399373779 31.4257
0256 1399376220 30.2622
0257 1399378662 30.3769
0258 1399381103 31.4730
0259 1399383544 30.4493
0260 1399385986 30.1718
0261 1399388427 30.6995
0262 1399390869 30.2509
0263 1399393310 29.9417
0264 1399395751 30.1941
0265 1399398193 30.0352
0266 1399400634 30.0591
0267 1399403076 30.1115
0268 1399405517 30.2392
0269 1399407958 30.2561
0270 1399410400 30.4683
0271 1399412841 30.3416
0272 1399415283 29.8849
0273 1399417724 30.1276
0274 1399420166 30.2246
0275 1399422607 30.1661
0276 1399425048 30.1394
0277 1399427490 30.4669
0278 1399429931 30.0888
0279 1399432373 30.1991
0280 1399434814 30.7773
0281 1399437255 29.9196
0282 1399439697 29.9454
0283 1399442138 32.0744
0284 1399444580 30.6343
0285 1399447021 29.6457
0286 1399449462 30.2383
0287 1399451904 30.4937
0288 1399454345 29.5766
0289 1399456787 29.8938
0290 1399459228 30.0871
0291 1399461669 29.9380
0292 1399464111 29.7884
0293 1399466552 29.8383
0294 1399468994 29.9292
0295 1399471435 30.3012
0296 1399473876 30.0895
0297 1399476318 29.5901
0298 1399478759 30.0821
0299 1399481201 29.9423
0300 1399483642 29.8249
0301 1399486083 31.8205
0302 1399488525 32.6550
0303 1399490966 29.7888
0304 1399493408 30.2887
0305 1399495849 30.6031
0306 1399498291 30.2742
0307 1399500732 31.4451
0308 1399503173 31.4820
0309 1399505615 30.4974
0310 1399508056 29.7689
0311 1399510498 30.3179
0312 1399512939 29.8424
0313 1399515380 29.8250
0314 1399517822 30.2912
0315 1399520263 30.1988
0316 1399522705 29.6710
0317 1399525146 30.6364
0318 1399527587 30.4138
0319 1399530029 30.2276
0320 1399532470 30.5894
0321 1399534912 30.1034
0322 1399537353 29.7441
0323 1399539794 30.3516
0324 1399542236 30.3215
0325 1399544677 30.2023
0326 1399547119 30.1683
0327 1399549560 30.2766
0328 1399552001 29.7569
0329 1399554443 31.0993
0330 1399556884 31.6062
0331 1399559326 30.2721
0332 1399561767 31.1679
0333 1399564208 33.6325
0334 1399566650 30.7648
0335 1399569091 30.0751
0336 1399571533 30.9112
0337 1399573974 30.1590
0338 1399576416 30.4664
0339 1399578857 30.4224
0340 1399581298 30.3791
0341 1399583740 30.4467
0342 1399586181 34.3119
0343 1399588623 35.3920
0344 1399591064 30.5700
0345 1399593505 31.3066
0346 1399595947 31.0765
0347 1399598388 30.3702
0348 1399600830 30.8146
0349 1399603271 30.9514
0350 1399605712 30.5500
0351 1399608154 30.6924
0352 1399610595 30.9237
0353 1399613037 30.7778
0354 1399615478 31.4065
0355 1399617919 31.3948
0356 1399620361 31.1626
0357 1399622802 32.3067
0358 1399625244 33.7129
0359 1399627685 30.9023
0360 1399630126 31.1686
0361 1399632568 31.7287
0362 1399635009 30.7825
0363 1399637451 31.0950
0364 1399639892 30.9384
0365 1399642333 31.2385
0366 1399644775 31.5167
0367 1399647216 31.4054
0368 1399649658 31.1020
0369 1399652099 31.2561
0370 1399654541 32.1433
0371 1399656982 31.4213
0372 1399659423 31.8040
0373 1399661865 31.4712
0374 1399664306 31.2009
0375 1399666748 31.4869
0376 1399669189 32.0456
0377 1399671630 31.7644
0378 1399674072 31.7838
0379 1399676513 32.8606
0380 1399678955 31.9570
0381 1399681396 32.3693
0382 1399683837 33.8064
0383 1399686279 34.5052
0384 1399688720 31.9143
0385 1399691162 32.0793
0386 1399693603 32.6990
0387 1399696044 32.3299
0388 1399698486 32.2818
0389 1399700927 32.6788
0390 1399703369 31.9790
0391 1399705810 32.1202
0392 1399708251 32.4600
0393 1399710693 32.3084
0394 1399713134 32.0878
0395 1399715576 32.6153
0396 1399718017 34.2147
0397 1399720458 36.4392
0398 1399722900 33.4889
0399 1399725341 32.8377
0400 1399727783 32.8320
0401 1399730224 33.1470
0402 1399732666 32.8347
0403 1399735107 32.8638
0404 1399737548 33.5349
0405 1399739990 32.9620
0406 1399742431 33.3227
0407 1399744873 35.1398
0408 1399747314 34.5857
0409 1399749755 34.0608
0410 1399752197 34.3812
0411 1399754638 33.5529
0412 1399757080 33.5817
0413 1399759521 33.9656
0414 1399761962 33.5173
0415 1399764404 33.4907
0416 1399766845 33.8266
0417 1399769287 33.7801
0418 1399771728 33.2861
0419 1399774169 34.0311
0420 1399776611 34.0941
0421 1399779052 34.0053
0422 1399781494 34.0715
0423 1399783935 33.6737
0424 1399786376 38.4574
0425 1399788818 38.6052
0426 1399791259 36.5777
0427 1399793701 39.0272
0428 1399796142 35.0315
0429 1399798583 35.2956
0430 1399801025 34.9580
0431 1399803466 35.1296
0432 1399805908 35.3145
0433 1399808349 35.1434
0434 1399810791 34.8758
0435 1399813232 35.1663
0436 1399815673 34.9785
0437 1399818115 35.2383
0438 1399820556 35.3620
0439 1399822998 34.8778
0440 1399825439 34.9111
0441 1399827880 35.4716
0442 1399830322 35.4918
0443 1399832763 35.1208
0444 1399835205 35.2607
0445 1399837646 34.9969
0446 1399840087 35.4128
0447 1399842529 36.1884
0448 1399844970 41.7776
0449 1399847412 39.8464
0450 1399849853 35.7831
0451 1399852294 35.8146
0452 1399854736 35.7756
0453 1399857177 36.5924
0454 1399859619 37.0378
0455 1399862060 35.9459
0456 1399864501 35.8232
0457 1399866943 37.0502
0458 1399869384 36.1248
0459 1399871826 36.7542
0460 1399874267 36.8546
0461 1399876708 35.9373
0462 1399879150 36.0853
0463 1399881591 36.8415
0464 1399884033 37.0720
0465 1399886474 40.3973
0466 1399888916 39.5019
0467 1399891357 36.4734
0468 1399893798 36.5312
0469 1399896240 37.4602
0470 1399898681 37.6808
0471 1399901123 37.0659
0472 1399903564 37.0160
0473 1399906005 36.6127
0474 1399908447 36.8222
0475 1399910888 37.1541
0476 1399913330 37.4691
0477 1399915771 37.1565
0478 1399918212 37.1266
0479 1399920654 37.1861
0480 1399923095 37.4749
0481 1399925537 36.9081
0482 1399927978 38.0042
0483 1399930419 38.7182
0484 1399932861 38.9347
0485 1399935302 38.0746
0486 1399937744 37.4904
0487 1399940185 37.4044
0488 1399942626 38.0928
0489 1399945068 37.8162
0490 1399947509 37.5053
0491 1399949951 38.4489
0492 1399952392 38.3668
0493 1399954833 38.1157
0494 1399957275 38.1003
0495 1399959716 38.2556
0496 1399962158 38.1994
0497 1399964599 38.5300
0498 1399967041 38.5340
0499 1399969482 38.3667
0500 1399971923 39.4417
0501 1399974365 41.1282
0502 1399976806 40.1236
0503 1399979248 43.1430
0504 1399981689 87.0902
0505 1399984130 63.2565
0506 1399986572 57.5166
0507 1399989013 70.2780
0508 1399991455 48.4787
0509 1399993896 45.8014
0510 1399996337 81.4856
0511 1399998779 262.8410
0512 1400001220 80.7428
0513 1400003662 45.6931
0514 1400006103 42.3448
0515 1400008544 39.7253
0516 1400010986 40.5463
0517 1400013427 97.3773
0518 1400015869 115.1528
0519 1400018310 41.4838
0520 1400020751 41.2205
0521 1400023193 42.3199
0522 1400025634 39.7864
0523 1400028076 38.6324
0524 1400030517 38.7052
0525 1400032958 38.9933
0526 1400035400 38.6357
0527 1400037841 38.0500
0528 1400040283 38.8075
0529 1400042724 38.8796
0530 1400045166 37.7534
0531 1400047607 38.9890
0532 1400050048 38.8777
0533 1400052490 37.9262
0534 1400054931 38.7247
0535 1400057373 38.7514
0536 1400059814 37.7794
0537 1400062255 37.0842
0538 1400064697 37.8779
0539 1400067138 37.5976
0540 1400069580 37.3765
0541 1400072021 38.2905
0542 1400074462 37.6050
0543 1400076904 37.4139
0544 1400079345 37.5067
0545 1400081787 37.0646
0546 1400084228 38.2171
0547 1400086669 45.9625
0548 1400089111 41.7447
0549 1400091552 36.8239
0550 1400093994 37.1044
0551 1400096435 36.9927
0552 1400098876 36.6108
0553 1400101318 36.5665
0554 1400103759 36.9925
0555 1400106201 36.5506
0556 1400108642 37.5776
0557 1400111083 38.5534
0558 1400113525 36.6836
0559 1400115966 36.8405
0560 1400118408 37.1966
0561 1400120849 36.5421
0562 1400123291 36.7630
0563 1400125732 36.8208
0564 1400128173 36.3538
0565 1400130615 36.2107
0566 1400133056 36.5063
0567 1400135498 36.1110
0568 1400137939 36.0057
0569 1400140380 36.0106
0570 1400142822 36.4549
0571 1400145263 36.4092
0572 1400147705 36.5274
0573 1400150146 36.0429
0574 1400152587 36.1387
0575 1400155029 37.3706
0576 1400157470 36.3822
0577 1400159912 35.7528
0578 1400162353 36.9870
0579 1400164794 36.1119
0580 1400167236 35.6225
0581 1400169677 36.4817
0582 1400172119 36.6829
0583 1400174560 35.3795
0584 1400177001 35.1889
0585 1400179443 35.3207
0586 1400181884 35.1883
0587 1400184326 35.2236
0588 1400186767 36.9101
0589 1400189208 35.8128
0590 1400191650 35.1034
0591 1400194091 35.7189
0592 1400196533 35.0065
0593 1400198974 34.8057
0594 1400201416 35.3151
0595 1400203857 34.9224
0596 1400206298 34.4916
0597 1400208740 35.2182
0598 1400211181 34.8617
0599 1400213623 34.3658
0600 1400216064 34.6153
0601 1400218505 34.2349
0602 1400220947 34.5196
0603 1400223388 34.6952
0604 1400225830 34.2085
0605 1400228271 33.8379
0606 1400230712 34.5083
0607 1400233154 34.5765
0608 1400235595 34.1482
0609 1400238037 34.5200
0610 1400240478 33.9868
0611 1400242919 33.4946
0612 1400245361 33.6431
0613 1400247802 33.9368
0614 1400250244 33.7547
0615 1400252685 33.8791
0616 1400255126 34.0743
0617 1400257568 33.6781
0618 1400260009 33.6688
0619 1400262451 33.1874
0620 1400264892 33.1669
0621 1400267333 33.0332
0622 1400269775 33.5982
0623 1400272216 33.3005
0624 1400274658 33.1753
0625 1400277099 33.7127
0626 1400279541 33.0208
0627 1400281982 33.5831
0628 1400284423 35.7760
0629 1400286865 36.1764
0630 1400289306 34.3974
0631 1400291748 36.2480
0632 1400294189 33.6212
0633 1400296630 32.8984
0634 1400299072 32.5778
0635 1400301513 32.8467
0636 1400303955 34.0914
0637 1400306396 32.7702
0638 1400308837 32.5291
0639 1400311279 32.4282
0640 1400313720 32.5131
0641 1400316162 32.9628
0642 1400318603 32.6904
0643 1400321044 32.8153
0644 1400323486 33.0564
0645 1400325927 32.1004
0646 1400328369 32.1789
0647 1400330810 32.3937
0648 1400333251 32.3562
0649 1400335693 32.0676
0650 1400338134 32.0258
0651 1400340576 31.9800
0652 1400343017 32.6343
0653 1400345458 33.1444
0654 1400347900 31.8949
0655 1400350341 31.4671
0656 1400352783 32.7360
0657 1400355224 32.1974
0658 1400357666 32.2715
0659 1400360107 31.7678
0660 1400362548 31.3926
0661 1400364990 31.3759
0662 1400367431 31.3409
0663 1400369873 31.5690
0664 1400372314 31.8301
0665 1400374755 31.7604
0666 1400377197 31.9251
0667 1400379638 31.8988
0668 1400382080 31.2431
0669 1400384521 31.7214
0670 1400386962 37.4167
0671 1400389404 34.3390
0672 1400391845 31.6031
0673 1400394287 31.2238
0674 1400396728 31.3099
0675 1400399169 31.5032
0676 1400401611 31.3377
0677 1400404052 32.0317
0678 1400406494 31.9494
0679 1400408935 31.1303
0680 1400411376 31.7548
0681 1400413818 33.5056
0682 1400416259 31.4633
0683 1400418701 30.7439
0684 1400421142 31.0233
0685 1400423583 31.0219
0686 1400426025 31.2162
0687 1400428466 31.0326
0688 1400430908 31.0577
0689 1400433349 31.4602
0690 1400435791 31.0111
0691 1400438232 30.8404
0692 1400440673 31.0091
0693 1400443115 31.3627
0694 1400445556 30.9021
0695 1400447998 30.4707
0696 1400450439 30.5098
0697 1400452880 30.9144
0698 1400455322 30.8332
0699 1400457763 30.8983
0700 1400460205 30.8961
0701 1400462646 30.8313
0702 1400465087 31.5498
0703 1400467529 31.5487
0704 1400469970 30.6456
0705 1400472412 31.5242
0706 1400474853 32.3565
0707 1400477294 30.8625
0708 1400479736 30.2850
0709 1400482177 30.9054
0710 1400484619 30.7530
0711 1400487060 31.1918
0712 1400489501 31.0520
0713 1400491943 30.5736
0714 1400494384 31.2061
0715 1400496826 32.2640
0716 1400499267 32.1044
0717 1400501708 30.7904
0718 1400504150 31.0310
0719 1400506591 30.9788
0720 1400509033 30.5845
0721 1400511474 31.0609
0722 1400513916 30.8364
0723 1400516357 30.5983
0724 1400518798 31.2966
0725 1400521240 31.5023
0726 1400523681 31.0484
0727 1400526123 32.1247
0728 1400528564 31.4830
0729 1400531005 31.1377
0730 1400533447 31.6948
0731 1400535888 31.8229
0732 1400538330 30.9843
0733 1400540771 31.0908
0734 1400543212 31.7546
0735 1400545654 31.1041
0736 1400548095 30.9929
0737 1400550537 31.4656
0738 1400552978 30.7897
0739 1400555419 31.2982
0740 1400557861 31.4824
0741 1400560302 31.1288
0742 1400562744 31.1815
0743 1400565185 31.4716
0744 1400567626 31.1096
0745 1400570068 31.7270
0746 1400572509 31.9834
0747 1400574951 31.5546
0748 1400577392 31.2858
0749 1400579833 31.5433
0750 1400582275 31.5252
0751 1400584716 32.0040
0752 1400587158 38.6349
0753 1400589599 33.3312
0754 1400592041 30.9748
0755 1400594482 32.7683
0756 1400596923 33.0887
0757 1400599365 31.3755
0758 1400601806 31.4845
0759 1400604248 31.7714
0760 1400606689 31.5422
0761 1400609130 31.8597
0762 1400611572 32.1441
0763 1400614013 31.5863
0764 1400616455 31.6286
0765 1400618896 31.4198
0766 1400621337 31.2884
0767 1400623779 31.2738
0768 1400626220 31.9561
0769 1400628662 31.5592
0770 1400631103 31.7415
0771 1400633544 31.7230
0772 1400635986 31.4096
0773 1400638427 31.7008
0774 1400640869 32.9714
0775 1400643310 32.2366
0776 1400645751 32.1616
0777 1400648193 32.6265
0778 1400650634 31.8593
0779 1400653076 31.6757
0780 1400655517 31.8851
0781 1400657958 31.9193
0782 1400660400 31.2927
0783 1400662841 31.5223
0784 1400665283 31.8175
0785 1400667724 31.5442
0786 1400670166 32.5906
0787 1400672607 34.2647
0788 1400675048 33.1771
0789 1400677490 32.2354
0790 1400679931 31.8175
0791 1400682373 31.4978
0792 1400684814 31.8454
0793 1400687255 34.4772
0794 1400689697 32.0099
0795 1400692138 33.6478
0796 1400694580 42.2726
0797 1400697021 36.0574
0798 1400699462 32.0241
0799 1400701904 31.8673
0800 1400704345 31.6195
0801 1400706787 31.6947
0802 1400709228 32.4467
0803 1400711669 31.5074
0804 1400714111 31.6886
0805 1400716552 33.1350
0806 1400718994 32.4736
0807 1400721435 31.6235
0808 1400723876 31.7374
0809 1400726318 31.5095
0810 1400728759 31.5965
0811 1400731201 31.7499
0812 1400733642 31.5971
0813 1400736083 31.3677
0814 1400738525 31.4213
0815 1400740966 31.5908
0816 1400743408 31.2215
0817 1400745849 31.3994
0818 1400748291 31.4881
0819 1400750732 31.5782
0820 1400753173 31.9210
0821 1400755615 31.3958
0822 1400758056 30.9416
0823 1400760498 31.1146
0824 1400762939 31.2636
0825 1400765380 31.0929
0826 1400767822 31.6672
0827 1400770263 31.5283
0828 1400772705 30.7507
0829 1400775146 30.8544
0830 1400777587 31.8865
0831 1400780029 31.3408
0832 1400782470 30.6343
0833 1400784912 30.9771
0834 1400787353 32.2526
0835 1400789794 30.6093
0836 1400792236 30.7512
0837 1400794677 30.1604
0838 1400797119 30.4526
0839 1400799560 30.7726
0840 1400802001 30.7971
0841 1400804443 30.2916
0842 1400806884 30.2350
0843 1400809326 29.8462
0844 1400811767 30.1101
0845 1400814208 30.3995
0846 1400816650 30.0085
0847 1400819091 29.8657
0848 1400821533 31.2095
0849 1400823974 32.6041
0850 1400826416 29.7994
0851 1400828857 30.1343
0852 1400831298 29.7202
0853 1400833740 29.2760
0854 1400836181 29.5211
0855 1400838623 30.2293
0856 1400841064 28.9022
0857 1400843505 29.0373
0858 1400845947 29.0586
0859 1400848388 28.6705
0860 1400850830 28.4625
0861 1400853271 28.6240
0862 1400855712 28.5310
0863 1400858154 28.2720
0864 1400860595 28.1013
0865 1400863037 27.7620
0866 1400865478 27.5522
0867 1400867919 27.6162
0868 1400870361 27.6697
0869 1400872802 27.2960
0870 1400875244 27.4259
0871 1400877685 27.5628
0872 1400880126 27.3399
0873 1400882568 27.1402
0874 1400885009 28.1659
0875 1400887451 32.6259
0876 1400889892 27.5374
0877 1400892333 26.7067
0878 1400894775 26.2871
0879 1400897216 26.4696
0880 1400899658 27.4657
0881 1400902099 25.8945
0882 1400904541 25.8545
0883 1400906982 25.5383
0884 1400909423 25.5517
0885 1400911865 25.1923
0886 1400914306 25.4177
0887 1400916748 25.0230
0888 1400919189 24.8542
0889 1400921630 24.8154
0890 1400924072 24.5902
0891 1400926513 24.3873
0892 1400928955 24.9117
0893 1400931396 24.4078
0894 1400933837 23.9797
0895 1400936279 23.7482
0896 1400938720 23.3991
0897 1400941162 23.4106
0898 1400943603 23.8568
0899 1400946044 23.5153
0900 1400948486 23.0531
0901 1400950927 23.3423
0902 1400953369 22.8688
0903 1400955810 22.4679
0904 1400958251 22.9617
0905 1400960693 23.0902
0906 1400963134 21.7760
0907 1400965576 21.9792
0908 1400968017 21.5184
0909 1400970458 21.3021
0910 1400972900 21.2840
0911 1400975341 21.1579
0912 1400977783 20.7431
0913 1400980224 20.9260
0914 1400982666 20.3309
0915 1400985107 20.0015
0916 1400987548 20.1264
0917 1400989990 19.9350
0918 1400992431 19.7537
0919 1400994873 19.5106
0920 1400997314 19.5456
0921 1400999755 19.1671
0922 1401002197 19.0419
0923 1401004638 18.7990
0924 1401007080 18.6050
0925 1401009521 18.5821
0926 1401011962 18.9524
0927 1401014404 18.0807
0928 1401016845 17.8442
0929 1401019287 18.4462
0930 1401021728 18.2566
0931 1401024169 17.3439
0932 1401026611 17.3214
0933 1401029052 17.1984
0934 1401031494 16.7855
0935 1401033935 16.6653
0936 1401036376 16.2728
0937 1401038818 16.3751
0938 1401041259 16.1278
0939 1401043701 16.3388
0940 1401046142 15.8293
0941 1401048583 15.4566
0942 1401051025 15.2749
0943 1401053466 15.1303
0944 1401055908 14.9048
0945 1401058349 14.7836
0946 1401060791 14.5445
0947 1401063232 14.5690
0948 1401065673 14.5261
0949 1401068115 14.3392
0950 1401070556 14.0660
0951 1401072998 14.0232
0952 1401075439 13.6588
0953 1401077880 13.3743
0954 1401080322 13.7438
0955 1401082763 13.4603
0956 1401085205 13.5893
0957 1401087646 15.6221
0958 1401090087 13.1027
0959 1401092529 12.5387
0960 1401094970 12.4927
0961 1401097412 12.2875
0962 1401099853 12.0122
0963 1401102294 11.8370
0964 1401104736 11.8401
0965 1401107177 11.5343
0966 1401109619 11.4618
0967 1401112060 11.3198
0968 1401114501 11.1114
0969 1401116943 10.9992
0970 1401119384 10.8203
0971 1401121826 10.6581
0972 1401124267 10.6628
0973 1401126708 10.5892
0974 1401129150 10.3994
0975 1401131591 10.4589
0976 1401134033 10.6031
0977 1401136474 9.8884
0978 1401138916 9.7585
0979 1401141357 9.8838
0980 1401143798 9.6071
0981 1401146240 9.4065
0982 1401148681 9.3138
0983 1401151123 9.1421
0984 1401153564 8.9571
0985 1401156005 8.9750
0986 1401158447 8.8354
0987 1401160888 8.6834
0988 1401163330 8.6278
0989 1401165771 8.4851
0990 1401168212 8.2905
0991 1401170654 8.2885
0992 1401173095 8.3434
0993 1401175537 8.0511
0994 1401177978 7.9551
0995 1401180419 8.0781
0996 1401182861 8.0755
0997 1401185302 7.9819
0998 1401187744 8.5570
0999 1401190185 7.7361
1000 1401192626 7.5882
1001 1401195068 7.5475
1002 1401197509 8.0770
1003 1401199951 8.2835
1004 1401202392 7.6601
1005 1401204833 7.2915
1006 1401207275 7.1135
1007 1401209716 7.0383
1008 1401212158 7.0677
1009 1401214599 7.5473
1010 1401217041 6.9925
1011 1401219482 6.8147
1012 1401221923 6.8422
1013 1401224365 6.8589
1014 1401226806 6.8114
1015 1401229248 6.6905
1016 1401231689 6.6841
1017 1401234130 6.5931
1018 1401236572 6.6354
1019 1401239013 6.6259
1020 1401241455 6.5588
1021 1401243896 6.5662
1022 1401246337 6.6473
1023 1401248779 6.6676
