# File: 20-05-31T225334.ast
# NOTEA     = None Attached.  RTLSDR Dongle Test
# NOTEB     = Spectral Integration
# OBSERVER  = Science Aficionado
# DEVICE    = rtlsdr=0
# DATADIR   = ../data/
# SITE      = None Attached.  RTLSDR Dongle Test
# CITY      = Green Bank
# REGION    = West Virginia
# COUNTRY   = US
# TELTYPE   = Bubble Wrap  Horn
# FRAME     = TOPO
# GAIN1     = 49.0
# GAIN2     = 11.0
# GAIN3     = 11.0
# GAIN4     = 0.0
# Count     = 10000
# CenterFreq= 1400000000.0
# Bandwidth = 2500000.0
# Duration  = 41.953623
# DeltaX    = 5859.375
# TSYS      = 200.0
# TRX       = 100.0
# TRMS      = 2.0
# TINT      = 1.0
# KPERC     = 100.0
# GAINFACT  = 1.0
# BUNIT     = Counts
# NCHAN     = 1024
# NSPEC     = 1
# NTIME     = 0
# NSAMPLES  = 0
# EPEAK     = 4.10875183718
# ERMS      = 0.995973393526
# EMJD      = 58568.808999981004 
# REFCHAN   = 512.0
# REFSAMPL  = 256.0
# NAVE      = 100
# NMEDIAN   = 1024
# Fft_rate  = 5000
# UTC       = 2020-05-31 22:53:34.456583
# SECONDS   =       0.0000000000 
# LST       = 10:13:46.570
# AZ        = 180.0
# EL        = 90.0
# TELLON    = -79:50:22.920
# TELLAT    = +38:25:59.160
# RA        = 10:11:22.910
# DEC       = +38:37:52.700
# GALLON    = 183:32:59.50
# GALLAT    = +54:48:01.60
# ALT_SUN   = +18:00:28.3
# AZ_SUN    = +284:18:46.7
# ETAA      = 0.8
# ETAB      = 0.99
# POLANGLE  = 0.0
# TELSIZEAM = 1.0
# TELSIZEBM = 1.0
# AST_VERS  = 05.01
0000 1398751220 6.0627
0001 1398753662 5.8861
0002 1398756103 6.1072
0003 1398758544 6.2597
0004 1398760986 6.0635
0005 1398763427 6.0912
0006 1398765869 5.9684
0007 1398768310 5.9395
0008 1398770751 5.8968
0009 1398773193 6.0622
0010 1398775634 6.2324
0011 1398778076 6.1541
0012 1398780517 6.0738
0013 1398782958 6.0634
0014 1398785400 6.1767
0015 1398787841 6.4174
0016 1398790283 6.2775
0017 1398792724 6.3477
0018 1398795166 6.6121
0019 1398797607 9.2133
0020 1398800048 7.3667
0021 1398802490 6.4970
0022 1398804931 6.4876
0023 1398807373 6.4668
0024 1398809814 6.5642
0025 1398812255 6.6347
0026 1398814697 6.7833
0027 1398817138 6.7107
0028 1398819580 6.8531
0029 1398822021 6.8365
0030 1398824462 6.8975
0031 1398826904 7.0147
0032 1398829345 7.0045
0033 1398831787 7.1348
0034 1398834228 7.3848
0035 1398836669 7.5784
0036 1398839111 7.3563
0037 1398841552 7.4842
0038 1398843994 7.5232
0039 1398846435 7.5816
0040 1398848876 7.7435
0041 1398851318 7.8479
0042 1398853759 7.8253
0043 1398856201 7.9798
0044 1398858642 8.1568
0045 1398861083 8.0901
0046 1398863525 8.2092
0047 1398865966 8.5200
0048 1398868408 8.6427
0049 1398870849 8.5931
0050 1398873291 8.7578
0051 1398875732 8.8767
0052 1398878173 9.0734
0053 1398880615 9.0619
0054 1398883056 9.2124
0055 1398885498 9.3927
0056 1398887939 9.8137
0057 1398890380 9.6826
0058 1398892822 9.6344
0059 1398895263 10.3412
0060 1398897705 10.5925
0061 1398900146 10.2205
0062 1398902587 10.2325
0063 1398905029 10.2119
0064 1398907470 10.5514
0065 1398909912 10.7776
0066 1398912353 11.0173
0067 1398914794 11.4367
0068 1398917236 11.1232
0069 1398919677 11.1667
0070 1398922119 11.3205
0071 1398924560 11.5876
0072 1398927001 11.8083
0073 1398929443 11.8627
0074 1398931884 11.9146
0075 1398934326 12.0065
0076 1398936767 12.0899
0077 1398939208 12.3673
0078 1398941650 12.6538
0079 1398944091 12.5340
0080 1398946533 12.7353
0081 1398948974 12.9291
0082 1398951416 13.0417
0083 1398953857 13.1014
0084 1398956298 13.6656
0085 1398958740 13.7332
0086 1398961181 13.5914
0087 1398963623 13.8849
0088 1398966064 13.8992
0089 1398968505 14.2278
0090 1398970947 14.5440
0091 1398973388 14.6369
0092 1398975830 14.4571
0093 1398978271 14.8380
0094 1398980712 15.0251
0095 1398983154 14.9632
0096 1398985595 15.4197
0097 1398988037 15.5900
0098 1398990478 15.4937
0099 1398992919 15.7118
0100 1398995361 15.7747
0101 1398997802 15.9164
0102 1399000244 16.0208
0103 1399002685 16.4871
0104 1399005126 16.6334
0105 1399007568 16.5877
0106 1399010009 16.9601
0107 1399012451 17.0352
0108 1399014892 17.0069
0109 1399017333 18.1620
0110 1399019775 17.6834
0111 1399022216 17.4604
0112 1399024658 18.0785
0113 1399027099 17.8184
0114 1399029541 18.0125
0115 1399031982 18.1990
0116 1399034423 18.4002
0117 1399036865 18.4096
0118 1399039306 18.6037
0119 1399041748 18.7871
0120 1399044189 18.9831
0121 1399046630 18.8607
0122 1399049072 19.0220
0123 1399051513 19.3021
0124 1399053955 19.7695
0125 1399056396 20.1889
0126 1399058837 19.6036
0127 1399061279 20.2757
0128 1399063720 20.4209
0129 1399066162 20.1982
0130 1399068603 20.5458
0131 1399071044 20.8202
0132 1399073486 20.3565
0133 1399075927 20.4647
0134 1399078369 21.4867
0135 1399080810 20.8109
0136 1399083251 20.9464
0137 1399085693 21.6116
0138 1399088134 21.9327
0139 1399090576 21.6260
0140 1399093017 22.0311
0141 1399095458 22.2734
0142 1399097900 21.7112
0143 1399100341 22.0013
0144 1399102783 21.9193
0145 1399105224 22.1014
0146 1399107666 22.3669
0147 1399110107 22.3998
0148 1399112548 22.2636
0149 1399114990 22.4631
0150 1399117431 23.2477
0151 1399119873 23.0411
0152 1399122314 23.1530
0153 1399124755 22.9998
0154 1399127197 23.1870
0155 1399129638 23.4185
0156 1399132080 23.7157
0157 1399134521 25.4912
0158 1399136962 25.7319
0159 1399139404 25.1797
0160 1399141845 23.9693
0161 1399144287 23.7344
0162 1399146728 24.2600
0163 1399149169 24.1852
0164 1399151611 24.2035
0165 1399154052 24.8452
0166 1399156494 24.5583
0167 1399158935 24.5382
0168 1399161376 24.6742
0169 1399163818 24.6482
0170 1399166259 24.5256
0171 1399168701 24.8947
0172 1399171142 24.7092
0173 1399173583 25.1282
0174 1399176025 24.9893
0175 1399178466 25.0473
0176 1399180908 25.2138
0177 1399183349 25.5127
0178 1399185791 25.5571
0179 1399188232 25.4052
0180 1399190673 26.6616
0181 1399193115 26.0697
0182 1399195556 25.6757
0183 1399197998 26.3048
0184 1399200439 27.0746
0185 1399202880 25.9198
0186 1399205322 26.7239
0187 1399207763 27.6354
0188 1399210205 26.1814
0189 1399212646 26.2758
0190 1399215087 26.3450
0191 1399217529 26.0684
0192 1399219970 26.4659
0193 1399222412 26.7104
0194 1399224853 26.2323
0195 1399227294 26.3481
0196 1399229736 26.4150
0197 1399232177 26.2660
0198 1399234619 26.3626
0199 1399237060 26.8697
0200 1399239501 26.7556
0201 1399241943 27.0562
0202 1399244384 27.7101
0203 1399246826 26.9422
0204 1399249267 26.5943
0205 1399251708 27.0270
0206 1399254150 27.0423
0207 1399256591 26.6903
0208 1399259033 27.0460
0209 1399261474 27.2589
0210 1399263916 26.7264
0211 1399266357 26.7765
0212 1399268798 27.1754
0213 1399271240 27.1394
0214 1399273681 27.7097
0215 1399276123 27.8983
0216 1399278564 27.2213
0217 1399281005 27.1451
0218 1399283447 27.1125
0219 1399285888 27.4561
0220 1399288330 27.6541
0221 1399290771 27.4285
0222 1399293212 27.4751
0223 1399295654 27.0472
0224 1399298095 27.4362
0225 1399300537 27.0313
0226 1399302978 27.3777
0227 1399305419 28.1634
0228 1399307861 28.1293
0229 1399310302 27.8016
0230 1399312744 28.4575
0231 1399315185 27.5517
0232 1399317626 26.9441
0233 1399320068 27.7687
0234 1399322509 27.6851
0235 1399324951 27.2467
0236 1399327392 27.6092
0237 1399329833 32.0373
0238 1399332275 29.1796
0239 1399334716 27.3099
0240 1399337158 28.1350
0241 1399339599 27.9092
0242 1399342041 27.4647
0243 1399344482 27.6160
0244 1399346923 27.1792
0245 1399349365 27.1828
0246 1399351806 27.7830
0247 1399354248 27.3866
0248 1399356689 27.3404
0249 1399359130 27.2702
0250 1399361572 27.4925
0251 1399364013 27.5342
0252 1399366455 27.8181
0253 1399368896 28.8230
0254 1399371337 27.8141
0255 1399373779 28.4710
0256 1399376220 27.5474
0257 1399378662 27.6209
0258 1399381103 28.1626
0259 1399383544 27.6452
0260 1399385986 27.1229
0261 1399388427 27.4284
0262 1399390869 27.5891
0263 1399393310 27.2346
0264 1399395751 27.6704
0265 1399398193 27.2702
0266 1399400634 27.8216
0267 1399403076 27.4414
0268 1399405517 27.3142
0269 1399407958 26.9602
0270 1399410400 27.1498
0271 1399412841 27.4545
0272 1399415283 27.0118
0273 1399417724 27.0506
0274 1399420166 27.4133
0275 1399422607 27.2823
0276 1399425048 26.9002
0277 1399427490 27.3925
0278 1399429931 27.0892
0279 1399432373 27.2192
0280 1399434814 27.9045
0281 1399437255 27.1233
0282 1399439697 27.1109
0283 1399442138 28.2811
0284 1399444580 27.5120
0285 1399447021 26.7430
0286 1399449462 27.2721
0287 1399451904 27.5145
0288 1399454345 26.9494
0289 1399456787 27.2298
0290 1399459228 27.0538
0291 1399461669 27.0365
0292 1399464111 27.2093
0293 1399466552 26.9632
0294 1399468994 26.8326
0295 1399471435 26.8467
0296 1399473876 27.0995
0297 1399476318 26.5777
0298 1399478759 26.7780
0299 1399481201 26.9475
0300 1399483642 26.6961
0301 1399486083 26.9498
0302 1399488525 27.0918
0303 1399490966 26.8282
0304 1399493408 27.1475
0305 1399495849 27.7869
0306 1399498291 27.5088
0307 1399500732 28.3040
0308 1399503173 27.7149
0309 1399505615 26.8937
0310 1399508056 26.8997
0311 1399510498 27.1905
0312 1399512939 26.9174
0313 1399515380 26.9316
0314 1399517822 27.2480
0315 1399520263 26.8674
0316 1399522705 26.8616
0317 1399525146 27.3802
0318 1399527587 27.2824
0319 1399530029 27.1594
0320 1399532470 27.2490
0321 1399534912 26.9572
0322 1399537353 27.0730
0323 1399539794 27.3328
0324 1399542236 27.0516
0325 1399544677 26.9779
0326 1399547119 27.2936
0327 1399549560 27.3744
0328 1399552001 26.9263
0329 1399554443 27.7444
0330 1399556884 27.9658
0331 1399559326 27.3325
0332 1399561767 28.1217
0333 1399564208 29.3447
0334 1399566650 27.1959
0335 1399569091 27.0063
0336 1399571533 27.7283
0337 1399573974 27.3023
0338 1399576416 26.8527
0339 1399578857 27.5454
0340 1399581298 27.4051
0341 1399583740 27.2644
0342 1399586181 27.5152
0343 1399588623 27.7428
0344 1399591064 27.3455
0345 1399593505 28.0549
0346 1399595947 27.7192
0347 1399598388 27.3084
0348 1399600830 27.7324
0349 1399603271 27.8974
0350 1399605712 27.6119
0351 1399608154 27.5878
0352 1399610595 27.3631
0353 1399613037 27.4250
0354 1399615478 28.1940
0355 1399617919 28.0442
0356 1399620361 28.6260
0357 1399622802 29.2163
0358 1399625244 29.2465
0359 1399627685 27.7877
0360 1399630126 27.9242
0361 1399632568 28.2399
0362 1399635009 28.0078
0363 1399637451 28.1803
0364 1399639892 28.1075
0365 1399642333 27.9118
0366 1399644775 27.9804
0367 1399647216 28.2430
0368 1399649658 28.0994
0369 1399652099 28.6328
0370 1399654541 28.3164
0371 1399656982 28.2256
0372 1399659423 28.3596
0373 1399661865 28.4918
0374 1399664306 28.1500
0375 1399666748 28.4912
0376 1399669189 28.8135
0377 1399671630 28.4933
0378 1399674072 28.5166
0379 1399676513 31.1705
0380 1399678955 30.2406
0381 1399681396 29.7170
0382 1399683837 30.7495
0383 1399686279 30.4253
0384 1399688720 28.6914
0385 1399691162 29.0000
0386 1399693603 28.9844
0387 1399696044 28.7573
0388 1399698486 29.0622
0389 1399700927 29.5690
0390 1399703369 29.3580
0391 1399705810 29.0072
0392 1399708251 29.1243
0393 1399710693 29.1054
0394 1399713134 29.6064
0395 1399715576 30.3426
0396 1399718017 29.7387
0397 1399720458 30.3482
0398 1399722900 29.7625
0399 1399725341 29.4227
0400 1399727783 29.7661
0401 1399730224 29.6779
0402 1399732666 29.2872
0403 1399735107 29.7481
0404 1399737548 30.4197
0405 1399739990 29.9057
0406 1399742431 30.1487
0407 1399744873 31.7105
0408 1399747314 31.7680
0409 1399749755 32.8949
0410 1399752197 31.9895
0411 1399754638 30.1068
0412 1399757080 30.8512
0413 1399759521 31.0172
0414 1399761962 30.0828
0415 1399764404 30.1059
0416 1399766845 30.6032
0417 1399769287 30.5838
0418 1399771728 30.5624
0419 1399774169 30.8089
0420 1399776611 31.5536
0421 1399779052 30.9449
0422 1399781494 30.6443
0423 1399783935 30.6607
0424 1399786376 31.0434
0425 1399788818 30.8629
0426 1399791259 33.0601
0427 1399793701 36.2411
0428 1399796142 31.4103
0429 1399798583 31.5255
0430 1399801025 31.2838
0431 1399803466 31.8444
0432 1399805908 31.9420
0433 1399808349 32.7779
0434 1399810791 32.0192
0435 1399813232 31.8901
0436 1399815673 31.7744
0437 1399818115 31.6338
0438 1399820556 31.8170
0439 1399822998 32.3883
0440 1399825439 31.6933
0441 1399827880 31.9661
0442 1399830322 32.3824
0443 1399832763 31.7813
0444 1399835205 32.1172
0445 1399837646 31.9372
0446 1399840087 32.9362
0447 1399842529 32.6457
0448 1399844970 33.3670
0449 1399847412 32.8152
0450 1399849853 32.0963
0451 1399852294 32.2134
0452 1399854736 32.1555
0453 1399857177 32.8901
0454 1399859619 33.3858
0455 1399862060 32.3637
0456 1399864501 32.4760
0457 1399866943 34.3661
0458 1399869384 33.1589
0459 1399871826 33.4157
0460 1399874267 33.4733
0461 1399876708 32.7257
0462 1399879150 32.5122
0463 1399881591 32.9888
0464 1399884033 33.0988
0465 1399886474 33.0246
0466 1399888916 33.1065
0467 1399891357 32.8575
0468 1399893798 33.2533
0469 1399896240 57.6617
0470 1399898681 62.6981
0471 1399901123 34.3619
0472 1399903564 34.2456
0473 1399906005 33.8299
0474 1399908447 33.3993
0475 1399910888 33.5251
0476 1399913330 35.1285
0477 1399915771 34.7662
0478 1399918212 33.8257
0479 1399920654 33.9960
0480 1399923095 33.9390
0481 1399925537 33.3997
0482 1399927978 34.9573
0483 1399930419 35.4485
0484 1399932861 35.4567
0485 1399935302 34.7280
0486 1399937744 34.1643
0487 1399940185 34.5543
0488 1399942626 34.4925
0489 1399945068 34.4324
0490 1399947509 34.5203
0491 1399949951 35.4620
0492 1399952392 34.9698
0493 1399954833 34.7925
0494 1399957275 35.3467
0495 1399959716 35.2380
0496 1399962158 34.8114
0497 1399964599 35.1314
0498 1399967041 35.2988
0499 1399969482 35.0907
0500 1399971923 35.9800
0501 1399974365 38.8834
0502 1399976806 44.8528
0503 1399979248 59.1334
0504 1399981689 40.7332
0505 1399984130 37.3340
0506 1399986572 59.4321
0507 1399989013 80.9415
0508 1399991455 56.7883
0509 1399993896 51.9762
0510 1399996337 337.4695
0511 1399998779 538.5964
0512 1400001220 66.3181
0513 1400003662 42.2397
0514 1400006103 40.3790
0515 1400008544 38.2327
0516 1400010986 39.1904
0517 1400013427 41.7920
0518 1400015869 42.3263
0519 1400018310 35.8216
0520 1400020751 39.4436
0521 1400023193 41.2249
0522 1400025634 36.5801
0523 1400028076 35.9713
0524 1400030517 35.5176
0525 1400032958 35.6369
0526 1400035400 34.8725
0527 1400037841 35.3364
0528 1400040283 36.0051
0529 1400042724 35.6209
0530 1400045166 35.1486
0531 1400047607 37.8576
0532 1400050048 36.0981
0533 1400052490 34.5479
0534 1400054931 34.7771
0535 1400057373 34.2150
0536 1400059814 34.6568
0537 1400062255 34.2334
0538 1400064697 34.1949
0539 1400067138 33.7346
0540 1400069580 33.9810
0541 1400072021 34.2937
0542 1400074462 33.8713
0543 1400076904 33.9437
0544 1400079345 33.4582
0545 1400081787 33.5759
0546 1400084228 34.8290
0547 1400086669 36.6761
0548 1400089111 33.9757
0549 1400091552 33.2712
0550 1400093994 33.7995
0551 1400096435 33.6817
0552 1400098876 33.1230
0553 1400101318 33.5320
0554 1400103759 33.7506
0555 1400106201 34.1040
0556 1400108642 38.8820
0557 1400111083 36.3333
0558 1400113525 33.1741
0559 1400115966 33.5539
0560 1400118408 33.3080
0561 1400120849 32.8862
0562 1400123291 33.0455
0563 1400125732 33.5155
0564 1400128173 33.1887
0565 1400130615 32.6767
0566 1400133056 32.7850
0567 1400135498 32.5899
0568 1400137939 32.3973
0569 1400140380 32.3987
0570 1400142822 32.4665
0571 1400145263 32.6453
0572 1400147705 33.1618
0573 1400150146 32.5281
0574 1400152587 32.2928
0575 1400155029 33.4180
0576 1400157470 32.9586
0577 1400159912 32.8171
0578 1400162353 33.6789
0579 1400164794 32.9955
0580 1400167236 32.3819
0581 1400169677 32.9871
0582 1400172119 32.8171
0583 1400174560 32.0238
0584 1400177001 31.7807
0585 1400179443 31.8494
0586 1400181884 31.9602
0587 1400184326 32.0898
0588 1400186767 32.5969
0589 1400189208 31.8291
0590 1400191650 31.7747
0591 1400194091 31.8782
0592 1400196533 31.5745
0593 1400198974 31.3308
0594 1400201416 31.5754
0595 1400203857 31.6442
0596 1400206298 31.6468
0597 1400208740 31.7992
0598 1400211181 31.7971
0599 1400213623 31.3296
0600 1400216064 31.9298
0601 1400218505 31.6992
0602 1400220947 30.8358
0603 1400223388 31.3094
0604 1400225830 31.3096
0605 1400228271 30.9365
0606 1400230712 31.6475
0607 1400233154 31.1480
0608 1400235595 30.9438
0609 1400238037 30.9259
0610 1400240478 30.9277
0611 1400242919 30.5156
0612 1400245361 30.8601
0613 1400247802 30.7824
0614 1400250244 30.4047
0615 1400252685 30.8648
0616 1400255126 30.8376
0617 1400257568 31.4125
0618 1400260009 33.4819
0619 1400262451 30.8207
0620 1400264892 30.0540
0621 1400267333 30.0404
0622 1400269775 30.4494
0623 1400272216 30.1224
0624 1400274658 30.2666
0625 1400277099 30.7578
0626 1400279541 30.2519
0627 1400281982 30.4073
0628 1400284423 31.5733
0629 1400286865 30.1409
0630 1400289306 30.1117
0631 1400291748 31.8930
0632 1400294189 30.2775
0633 1400296630 29.7727
0634 1400299072 29.5946
0635 1400301513 30.1642
0636 1400303955 32.4538
0637 1400306396 30.2285
0638 1400308837 29.6484
0639 1400311279 29.5562
0640 1400313720 29.5234
0641 1400316162 29.4364
0642 1400318603 29.0080
0643 1400321044 29.6920
0644 1400323486 30.0475
0645 1400325927 29.2841
0646 1400328369 29.0358
0647 1400330810 29.3125
0648 1400333251 29.1117
0649 1400335693 29.1422
0650 1400338134 29.3565
0651 1400340576 29.1611
0652 1400343017 30.3719
0653 1400345458 30.4650
0654 1400347900 28.8718
0655 1400350341 28.8528
0656 1400352783 29.9131
0657 1400355224 28.9660
0658 1400357666 28.9236
0659 1400360107 28.9963
0660 1400362548 28.8361
0661 1400364990 28.4131
0662 1400367431 28.6734
0663 1400369873 28.6396
0664 1400372314 28.2527
0665 1400374755 28.6898
0666 1400377197 29.1419
0667 1400379638 30.2962
0668 1400382080 28.3762
0669 1400384521 28.3962
0670 1400386962 28.6107
0671 1400389404 28.6797
0672 1400391845 28.7525
0673 1400394287 28.2045
0674 1400396728 28.3998
0675 1400399169 28.6923
0676 1400401611 28.3187
0677 1400404052 28.4810
0678 1400406494 29.1292
0679 1400408935 28.3155
0680 1400411376 28.5986
0681 1400413818 30.1569
0682 1400416259 28.4480
0683 1400418701 28.1383
0684 1400421142 28.2325
0685 1400423583 27.8227
0686 1400426025 27.7643
0687 1400428466 28.2439
0688 1400430908 27.9693
0689 1400433349 27.8178
0690 1400435791 27.8625
0691 1400438232 27.7627
0692 1400440673 27.6713
0693 1400443115 28.2778
0694 1400445556 27.8923
0695 1400447998 27.7518
0696 1400450439 28.0530
0697 1400452880 28.0245
0698 1400455322 27.6895
0699 1400457763 28.1869
0700 1400460205 27.8554
0701 1400462646 28.0104
0702 1400465087 29.1155
0703 1400467529 29.1782
0704 1400469970 27.7563
0705 1400472412 28.5846
0706 1400474853 29.8322
0707 1400477294 28.3348
0708 1400479736 27.7868
0709 1400482177 27.8299
0710 1400484619 27.7813
0711 1400487060 27.9949
0712 1400489501 28.3208
0713 1400491943 27.6116
0714 1400494384 27.8698
0715 1400496826 29.1703
0716 1400499267 29.9477
0717 1400501708 28.3364
0718 1400504150 28.2763
0719 1400506591 28.2992
0720 1400509033 27.8946
0721 1400511474 27.9808
0722 1400513916 27.9351
0723 1400516357 27.9418
0724 1400518798 28.4294
0725 1400521240 28.2365
0726 1400523681 28.2032
0727 1400526123 29.0761
0728 1400528564 28.5566
0729 1400531005 27.8726
0730 1400533447 28.8125
0731 1400535888 29.6806
0732 1400538330 28.6997
0733 1400540771 28.6666
0734 1400543212 28.8461
0735 1400545654 28.1738
0736 1400548095 28.0159
0737 1400550537 28.4712
0738 1400552978 28.1964
0739 1400555419 28.1724
0740 1400557861 28.8828
0741 1400560302 28.6163
0742 1400562744 28.0455
0743 1400565185 28.2492
0744 1400567626 28.1907
0745 1400570068 28.2365
0746 1400572509 28.5063
0747 1400574951 28.2367
0748 1400577392 28.1977
0749 1400579833 28.5478
0750 1400582275 28.5365
0751 1400584716 28.3359
0752 1400587158 29.0190
0753 1400589599 28.7564
0754 1400592041 28.4858
0755 1400594482 30.2802
0756 1400596923 30.7532
0757 1400599365 28.6400
0758 1400601806 28.6705
0759 1400604248 28.7304
0760 1400606689 28.4381
0761 1400609130 28.6357
0762 1400611572 28.5656
0763 1400614013 28.3760
0764 1400616455 28.4243
0765 1400618896 28.6365
0766 1400621337 28.4738
0767 1400623779 28.7132
0768 1400626220 29.6583
0769 1400628662 28.7264
0770 1400631103 28.7592
0771 1400633544 29.0236
0772 1400635986 28.6095
0773 1400638427 28.7444
0774 1400640869 29.4563
0775 1400643310 28.6735
0776 1400645751 29.1528
0777 1400648193 30.1192
0778 1400650634 28.7306
0779 1400653076 28.7956
0780 1400655517 29.1374
0781 1400657958 29.2537
0782 1400660400 28.6053
0783 1400662841 28.9128
0784 1400665283 28.8688
0785 1400667724 28.7166
0786 1400670166 29.8376
0787 1400672607 35.3587
0788 1400675048 42.6862
0789 1400677490 30.5655
0790 1400679931 29.0618
0791 1400682373 28.4655
0792 1400684814 28.4577
0793 1400687255 28.8799
0794 1400689697 28.5654
0795 1400692138 33.4242
0796 1400694580 37.0302
0797 1400697021 31.2659
0798 1400699462 28.8290
0799 1400701904 28.8613
0800 1400704345 28.7610
0801 1400706787 28.6768
0802 1400709228 29.4487
0803 1400711669 28.9378
0804 1400714111 28.6822
0805 1400716552 31.1046
0806 1400718994 29.8530
0807 1400721435 28.7571
0808 1400723876 28.8764
0809 1400726318 28.7466
0810 1400728759 28.7463
0811 1400731201 28.7341
0812 1400733642 28.7044
0813 1400736083 28.6441
0814 1400738525 28.7532
0815 1400740966 28.8762
0816 1400743408 28.1855
0817 1400745849 28.7381
0818 1400748291 29.0411
0819 1400750732 28.4650
0820 1400753173 28.5128
0821 1400755615 28.6117
0822 1400758056 28.3443
0823 1400760498 28.0504
0824 1400762939 28.2320
0825 1400765380 27.9305
0826 1400767822 29.9908
0827 1400770263 29.5895
0828 1400772705 28.2277
0829 1400775146 27.9548
0830 1400777587 29.6508
0831 1400780029 28.8152
0832 1400782470 28.0094
0833 1400784912 28.1539
0834 1400787353 27.9568
0835 1400789794 27.8729
0836 1400792236 28.2604
0837 1400794677 27.6252
0838 1400797119 27.4757
0839 1400799560 27.6639
0840 1400802001 27.7495
0841 1400804443 27.4749
0842 1400806884 27.5323
0843 1400809326 27.2977
0844 1400811767 27.2103
0845 1400814208 27.5736
0846 1400816650 27.1892
0847 1400819091 26.8268
0848 1400821533 27.9907
0849 1400823974 28.4358
0850 1400826416 26.7290
0851 1400828857 27.0462
0852 1400831298 26.7764
0853 1400833740 26.2394
0854 1400836181 26.6864
0855 1400838623 27.2764
0856 1400841064 26.3875
0857 1400843505 26.4667
0858 1400845947 26.3555
0859 1400848388 26.1159
0860 1400850830 25.9020
0861 1400853271 26.0736
0862 1400855712 25.8890
0863 1400858154 25.8450
0864 1400860595 25.5726
0865 1400863037 25.2028
0866 1400865478 25.3013
0867 1400867919 25.4931
0868 1400870361 25.1172
0869 1400872802 24.7406
0870 1400875244 25.1562
0871 1400877685 24.8573
0872 1400880126 24.6945
0873 1400882568 24.9095
0874 1400885009 24.7517
0875 1400887451 27.7101
0876 1400889892 25.9549
0877 1400892333 24.3859
0878 1400894775 23.8144
0879 1400897216 24.1110
0880 1400899658 24.9093
0881 1400902099 23.4875
0882 1400904541 23.5485
0883 1400906982 23.3819
0884 1400909423 23.0258
0885 1400911865 23.0795
0886 1400914306 22.8901
0887 1400916748 22.7665
0888 1400919189 22.7948
0889 1400921630 22.8537
0890 1400924072 22.4958
0891 1400926513 22.7130
0892 1400928955 23.0016
0893 1400931396 22.1775
0894 1400933837 21.9612
0895 1400936279 21.6438
0896 1400938720 21.4819
0897 1400941162 21.3903
0898 1400943603 21.7228
0899 1400946044 21.2921
0900 1400948486 21.2983
0901 1400950927 21.3098
0902 1400953369 20.9755
0903 1400955810 20.2785
0904 1400958251 20.8515
0905 1400960693 21.3239
0906 1400963134 20.4627
0907 1400965576 20.9939
0908 1400968017 20.0266
0909 1400970458 19.7189
0910 1400972900 19.4997
0911 1400975341 19.6174
0912 1400977783 19.2625
0913 1400980224 18.9012
0914 1400982666 18.7320
0915 1400985107 18.6063
0916 1400987548 18.5618
0917 1400989990 18.5051
0918 1400992431 18.2061
0919 1400994873 18.0085
0920 1400997314 17.9281
0921 1400999755 17.7212
0922 1401002197 17.5175
0923 1401004638 17.2899
0924 1401007080 17.2338
0925 1401009521 16.9913
0926 1401011962 17.1580
0927 1401014404 16.4782
0928 1401016845 16.2417
0929 1401019287 16.5382
0930 1401021728 16.3018
0931 1401024169 15.9606
0932 1401026611 15.8437
0933 1401029052 15.6030
0934 1401031494 15.3538
0935 1401033935 15.1796
0936 1401036376 14.8346
0937 1401038818 14.8535
0938 1401041259 14.7598
0939 1401043701 14.9104
0940 1401046142 14.2749
0941 1401048583 14.1097
0942 1401051025 13.9267
0943 1401053466 13.8879
0944 1401055908 13.7116
0945 1401058349 13.6121
0946 1401060791 13.3109
0947 1401063232 13.1468
0948 1401065673 13.3370
0949 1401068115 13.0385
0950 1401070556 13.0120
0951 1401072998 12.9208
0952 1401075439 12.4738
0953 1401077880 12.2517
0954 1401080322 12.6985
0955 1401082763 12.5562
0956 1401085205 12.0042
0957 1401087646 11.8159
0958 1401090087 11.5701
0959 1401092529 11.4102
0960 1401094970 11.4141
0961 1401097412 11.5145
0962 1401099853 11.1423
0963 1401102294 10.8804
0964 1401104736 10.6532
0965 1401107177 10.5805
0966 1401109619 10.4694
0967 1401112060 10.2833
0968 1401114501 10.1251
0969 1401116943 10.0311
0970 1401119384 9.9342
0971 1401121826 9.8033
0972 1401124267 9.8015
0973 1401126708 9.7640
0974 1401129150 9.5529
0975 1401131591 9.4698
0976 1401134033 9.5752
0977 1401136474 9.0362
0978 1401138916 8.8752
0979 1401141357 8.9974
0980 1401143798 8.7433
0981 1401146240 8.5336
0982 1401148681 8.5364
0983 1401151123 8.4170
0984 1401153564 8.1588
0985 1401156005 8.1900
0986 1401158447 8.0144
0987 1401160888 7.9103
0988 1401163330 7.8996
0989 1401165771 7.8185
0990 1401168212 7.6402
0991 1401170654 7.5660
0992 1401173095 7.5462
0993 1401175537 7.4624
0994 1401177978 7.4625
0995 1401180419 7.3143
0996 1401182861 7.1325
0997 1401185302 7.1113
0998 1401187744 7.3342
0999 1401190185 7.1405
1000 1401192626 7.0606
1001 1401195068 7.1505
1002 1401197509 9.6762
1003 1401199951 7.9561
1004 1401202392 6.9707
1005 1401204833 6.7175
1006 1401207275 6.5715
1007 1401209716 6.4281
1008 1401212158 6.4531
1009 1401214599 6.5080
1010 1401217041 6.2607
1011 1401219482 6.2108
1012 1401221923 6.2735
1013 1401224365 6.2411
1014 1401226806 6.1169
1015 1401229248 6.0398
1016 1401231689 6.0720
1017 1401234130 6.0578
1018 1401236572 6.0909
1019 1401239013 6.0087
1020 1401241455 6.0385
1021 1401243896 5.9659
1022 1401246337 6.0443
1023 1401248779 6.1290
