# File: 20-05-31T224511.ast
# NOTEA     = None Attached.  RTLSDR Dongle Test
# NOTEB     = Spectral Integration
# OBSERVER  = Science Aficionado
# DEVICE    = rtlsdr=0
# DATADIR   = ../data/
# SITE      = None Attached.  RTLSDR Dongle Test
# CITY      = Green Bank
# REGION    = West Virginia
# COUNTRY   = US
# TELTYPE   = Bubble Wrap  Horn
# FRAME     = TOPO
# GAIN1     = 49.0
# GAIN2     = 11.0
# GAIN3     = 11.0
# GAIN4     = 0.0
# Count     = 10000
# CenterFreq= 1400000000.0
# Bandwidth = 2500000.0
# Duration  = 41.942986
# DeltaX    = 5859.375
# TSYS      = 200.0
# TRX       = 100.0
# TRMS      = 2.0
# TINT      = 1.0
# KPERC     = 100.0
# GAINFACT  = 1.0
# BUNIT     = Counts
# NCHAN     = 1024
# NSPEC     = 1
# NTIME     = 0
# NSAMPLES  = 0
# EPEAK     = 4.10875183718
# ERMS      = 0.995973393526
# EMJD      = 58568.808999981004 
# REFCHAN   = 512.0
# REFSAMPL  = 256.0
# NAVE      = 100
# NMEDIAN   = 1024
# Fft_rate  = 5000
# UTC       = 2020-05-31 22:45:11.031953
# SECONDS   =       0.0000000000 
# LST       = 10:05:21.770
# AZ        = 180.0
# EL        = 90.0
# TELLON    = -79:50:22.920
# TELLAT    = +38:25:59.160
# RA        = 10:02:56.770
# DEC       = +38:37:38.800
# GALLON    = 183:51:19.50
# GALLAT    = +53:09:46.10
# ALT_SUN   = +19:35:57.0
# AZ_SUN    = +283:08:27.1
# ETAA      = 0.8
# ETAB      = 0.99
# POLANGLE  = 0.0
# TELSIZEAM = 1.0
# TELSIZEBM = 1.0
# AST_VERS  = 05.01
0000 1398751220 6.4744
0001 1398753662 6.4285
0002 1398756103 6.5760
0003 1398758544 6.5886
0004 1398760986 6.5775
0005 1398763427 6.6273
0006 1398765869 6.4559
0007 1398768310 6.4390
0008 1398770751 6.4715
0009 1398773193 6.5241
0010 1398775634 6.7031
0011 1398778076 6.6556
0012 1398780517 6.6017
0013 1398782958 6.6509
0014 1398785400 6.6765
0015 1398787841 7.0277
0016 1398790283 6.8407
0017 1398792724 6.8754
0018 1398795166 7.2599
0019 1398797607 10.7006
0020 1398800048 8.1943
0021 1398802490 7.0497
0022 1398804931 7.0514
0023 1398807373 7.0192
0024 1398809814 7.1321
0025 1398812255 7.2123
0026 1398814697 7.3432
0027 1398817138 7.3404
0028 1398819580 7.3983
0029 1398822021 7.4751
0030 1398824462 7.5613
0031 1398826904 7.5840
0032 1398829345 7.6035
0033 1398831787 7.7199
0034 1398834228 7.9892
0035 1398836669 8.1210
0036 1398839111 8.0356
0037 1398841552 8.0819
0038 1398843994 8.1871
0039 1398846435 8.3141
0040 1398848876 8.4604
0041 1398851318 8.6423
0042 1398853759 8.5556
0043 1398856201 8.7312
0044 1398858642 8.9558
0045 1398861083 8.9248
0046 1398863525 9.0512
0047 1398865966 9.2776
0048 1398868408 9.3196
0049 1398870849 9.3515
0050 1398873291 9.6288
0051 1398875732 9.6787
0052 1398878173 9.8602
0053 1398880615 9.9600
0054 1398883056 9.9584
0055 1398885498 10.2528
0056 1398887939 10.8128
0057 1398890380 10.5082
0058 1398892822 10.5617
0059 1398895263 11.3906
0060 1398897705 11.5156
0061 1398900146 11.1193
0062 1398902587 11.2252
0063 1398905029 11.2058
0064 1398907470 11.4789
0065 1398909912 11.7240
0066 1398912353 12.0902
0067 1398914794 12.7561
0068 1398917236 12.2659
0069 1398919677 12.3478
0070 1398922119 12.2723
0071 1398924560 12.4874
0072 1398927001 12.8645
0073 1398929443 12.9234
0074 1398931884 12.9581
0075 1398934326 13.0189
0076 1398936767 13.1471
0077 1398939208 13.5364
0078 1398941650 13.8585
0079 1398944091 13.7075
0080 1398946533 13.8839
0081 1398948974 14.2094
0082 1398951416 14.2217
0083 1398953857 14.3015
0084 1398956298 14.9197
0085 1398958740 15.0585
0086 1398961181 14.7948
0087 1398963623 15.2584
0088 1398966064 15.2113
0089 1398968505 15.5024
0090 1398970947 15.8759
0091 1398973388 16.0771
0092 1398975830 15.8791
0093 1398978271 16.2334
0094 1398980712 16.1392
0095 1398983154 16.2531
0096 1398985595 16.8263
0097 1398988037 17.4054
0098 1398990478 17.0914
0099 1398992919 17.1394
0100 1398995361 17.2562
0101 1398997802 17.3331
0102 1399000244 17.6316
0103 1399002685 17.9806
0104 1399005126 17.9855
0105 1399007568 18.2113
0106 1399010009 18.6101
0107 1399012451 18.2082
0108 1399014892 18.5608
0109 1399017333 19.9324
0110 1399019775 19.2576
0111 1399022216 19.0516
0112 1399024658 19.5944
0113 1399027099 19.4935
0114 1399029541 19.5565
0115 1399031982 19.8707
0116 1399034423 20.1178
0117 1399036865 19.9151
0118 1399039306 20.6344
0119 1399041748 20.6033
0120 1399044189 20.5358
0121 1399046630 20.9507
0122 1399049072 20.9551
0123 1399051513 21.0078
0124 1399053955 21.4014
0125 1399056396 21.6280
0126 1399058837 21.3952
0127 1399061279 22.0138
0128 1399063720 22.1978
0129 1399066162 21.8426
0130 1399068603 22.1146
0131 1399071044 22.6662
0132 1399073486 22.1459
0133 1399075927 22.4488
0134 1399078369 23.4344
0135 1399080810 22.6414
0136 1399083251 22.7402
0137 1399085693 23.3331
0138 1399088134 24.2066
0139 1399090576 23.6041
0140 1399093017 24.1399
0141 1399095458 24.3675
0142 1399097900 23.8324
0143 1399100341 24.2136
0144 1399102783 24.1666
0145 1399105224 24.3668
0146 1399107666 24.3364
0147 1399110107 24.7003
0148 1399112548 24.8130
0149 1399114990 24.6230
0150 1399117431 25.0402
0151 1399119873 25.0672
0152 1399122314 25.3128
0153 1399124755 25.2709
0154 1399127197 25.5524
0155 1399129638 25.6409
0156 1399132080 25.7736
0157 1399134521 27.5579
0158 1399136962 27.9962
0159 1399139404 27.6241
0160 1399141845 25.9903
0161 1399144287 25.9019
0162 1399146728 26.3486
0163 1399149169 26.5826
0164 1399151611 26.7699
0165 1399154052 27.3210
0166 1399156494 26.5500
0167 1399158935 26.6782
0168 1399161376 27.0085
0169 1399163818 26.8230
0170 1399166259 27.2570
0171 1399168701 27.6268
0172 1399171142 27.2175
0173 1399173583 27.5056
0174 1399176025 27.5201
0175 1399178466 27.5471
0176 1399180908 27.4995
0177 1399183349 28.0753
0178 1399185791 27.8631
0179 1399188232 27.9733
0180 1399190673 29.2782
0181 1399193115 28.5363
0182 1399195556 27.8009
0183 1399197998 28.8835
0184 1399200439 29.6636
0185 1399202880 27.9901
0186 1399205322 28.6936
0187 1399207763 29.7322
0188 1399210205 28.9133
0189 1399212646 28.4588
0190 1399215087 28.8004
0191 1399217529 28.6289
0192 1399219970 28.7786
0193 1399222412 29.0745
0194 1399224853 28.8502
0195 1399227294 28.8537
0196 1399229736 28.9601
0197 1399232177 29.1108
0198 1399234619 28.8537
0199 1399237060 29.3735
0200 1399239501 29.2172
0201 1399241943 29.4070
0202 1399244384 30.5010
0203 1399246826 29.6166
0204 1399249267 29.3677
0205 1399251708 29.6556
0206 1399254150 29.4341
0207 1399256591 29.5301
0208 1399259033 30.1447
0209 1399261474 30.0575
0210 1399263916 29.5173
0211 1399266357 29.2513
0212 1399268798 29.6019
0213 1399271240 29.4764
0214 1399273681 30.1285
0215 1399276123 30.3948
0216 1399278564 29.6661
0217 1399281005 29.6969
0218 1399283447 29.6631
0219 1399285888 30.2363
0220 1399288330 31.1209
0221 1399290771 29.7456
0222 1399293212 29.6410
0223 1399295654 29.4821
0224 1399298095 29.9326
0225 1399300537 29.7213
0226 1399302978 29.4496
0227 1399305419 30.6775
0228 1399307861 30.1390
0229 1399310302 29.9748
0230 1399312744 31.1465
0231 1399315185 30.3549
0232 1399317626 29.8114
0233 1399320068 30.3382
0234 1399322509 30.1093
0235 1399324951 29.8032
0236 1399327392 30.5212
0237 1399329833 34.3026
0238 1399332275 31.3047
0239 1399334716 29.9789
0240 1399337158 30.6839
0241 1399339599 30.1342
0242 1399342041 29.9303
0243 1399344482 30.1473
0244 1399346923 29.8199
0245 1399349365 29.8419
0246 1399351806 30.2005
0247 1399354248 29.6884
0248 1399356689 29.7847
0249 1399359130 29.4672
0250 1399361572 29.7111
0251 1399364013 30.1439
0252 1399366455 30.7068
0253 1399368896 31.1434
0254 1399371337 30.3587
0255 1399373779 30.8352
0256 1399376220 30.0643
0257 1399378662 29.8459
0258 1399381103 30.9554
0259 1399383544 30.2683
0260 1399385986 29.6224
0261 1399388427 29.9466
0262 1399390869 30.1379
0263 1399393310 29.7075
0264 1399395751 29.9035
0265 1399398193 29.6903
0266 1399400634 30.0118
0267 1399403076 29.8689
0268 1399405517 29.8583
0269 1399407958 29.4069
0270 1399410400 29.9493
0271 1399412841 29.9928
0272 1399415283 29.7891
0273 1399417724 29.8066
0274 1399420166 30.1081
0275 1399422607 29.8329
0276 1399425048 29.7684
0277 1399427490 29.9706
0278 1399429931 29.6536
0279 1399432373 29.8699
0280 1399434814 30.7672
0281 1399437255 29.8515
0282 1399439697 29.6978
0283 1399442138 30.4489
0284 1399444580 29.8541
0285 1399447021 29.3112
0286 1399449462 29.9017
0287 1399451904 29.8994
0288 1399454345 29.5622
0289 1399456787 29.8648
0290 1399459228 29.5735
0291 1399461669 29.4154
0292 1399464111 29.3717
0293 1399466552 29.5704
0294 1399468994 29.3652
0295 1399471435 29.5410
0296 1399473876 30.2474
0297 1399476318 29.7229
0298 1399478759 29.2679
0299 1399481201 29.3569
0300 1399483642 29.6285
0301 1399486083 30.1169
0302 1399488525 30.2627
0303 1399490966 29.6491
0304 1399493408 30.1306
0305 1399495849 30.0949
0306 1399498291 29.8620
0307 1399500732 30.9444
0308 1399503173 30.4118
0309 1399505615 29.3964
0310 1399508056 29.3247
0311 1399510498 29.5466
0312 1399512939 29.6344
0313 1399515380 29.4633
0314 1399517822 29.5157
0315 1399520263 29.2203
0316 1399522705 29.4130
0317 1399525146 30.0804
0318 1399527587 29.7988
0319 1399530029 29.7313
0320 1399532470 29.9316
0321 1399534912 29.6448
0322 1399537353 29.7040
0323 1399539794 30.1235
0324 1399542236 29.7045
0325 1399544677 29.3710
0326 1399547119 29.7615
0327 1399549560 29.7574
0328 1399552001 29.6385
0329 1399554443 30.6916
0330 1399556884 30.9011
0331 1399559326 29.6825
0332 1399561767 30.7635
0333 1399564208 31.9320
0334 1399566650 29.5067
0335 1399569091 29.6178
0336 1399571533 29.9791
0337 1399573974 29.6381
0338 1399576416 29.5910
0339 1399578857 29.9568
0340 1399581298 29.6582
0341 1399583740 29.8320
0342 1399586181 30.9246
0343 1399588623 30.7890
0344 1399591064 30.0751
0345 1399593505 30.7059
0346 1399595947 30.0451
0347 1399598388 29.8611
0348 1399600830 30.0815
0349 1399603271 30.1944
0350 1399605712 30.0712
0351 1399608154 30.2882
0352 1399610595 30.0170
0353 1399613037 29.9895
0354 1399615478 30.6488
0355 1399617919 30.5782
0356 1399620361 30.9530
0357 1399622802 31.4547
0358 1399625244 32.5030
0359 1399627685 30.3022
0360 1399630126 30.4649
0361 1399632568 30.8225
0362 1399635009 30.4801
0363 1399637451 30.7768
0364 1399639892 30.4157
0365 1399642333 30.6519
0366 1399644775 30.8683
0367 1399647216 31.0339
0368 1399649658 30.7769
0369 1399652099 31.2724
0370 1399654541 31.1658
0371 1399656982 30.7795
0372 1399659423 30.6859
0373 1399661865 31.3740
0374 1399664306 30.9682
0375 1399666748 31.0310
0376 1399669189 31.6768
0377 1399671630 31.5427
0378 1399674072 31.3825
0379 1399676513 34.7479
0380 1399678955 33.7881
0381 1399681396 32.0563
0382 1399683837 33.7993
0383 1399686279 33.7174
0384 1399688720 31.4298
0385 1399691162 31.9006
0386 1399693603 32.6768
0387 1399696044 31.5840
0388 1399698486 31.9123
0389 1399700927 31.8622
0390 1399703369 31.7959
0391 1399705810 31.8632
0392 1399708251 31.7423
0393 1399710693 31.7223
0394 1399713134 31.8817
0395 1399715576 32.4020
0396 1399718017 32.4255
0397 1399720458 33.3772
0398 1399722900 33.0583
0399 1399725341 32.3286
0400 1399727783 32.1932
0401 1399730224 32.8356
0402 1399732666 32.3006
0403 1399735107 32.4191
0404 1399737548 33.1490
0405 1399739990 32.6781
0406 1399742431 33.1087
0407 1399744873 34.5819
0408 1399747314 34.8993
0409 1399749755 37.0076
0410 1399752197 35.5814
0411 1399754638 33.0601
0412 1399757080 33.7639
0413 1399759521 33.8032
0414 1399761962 33.0534
0415 1399764404 33.3684
0416 1399766845 33.2679
0417 1399769287 33.2752
0418 1399771728 33.4981
0419 1399774169 33.7997
0420 1399776611 34.1241
0421 1399779052 33.6306
0422 1399781494 33.3741
0423 1399783935 33.6598
0424 1399786376 34.2585
0425 1399788818 34.3889
0426 1399791259 36.2851
0427 1399793701 39.8809
0428 1399796142 34.3902
0429 1399798583 35.0931
0430 1399801025 34.5811
0431 1399803466 34.1416
0432 1399805908 35.3875
0433 1399808349 35.7605
0434 1399810791 34.8033
0435 1399813232 34.8980
0436 1399815673 34.4456
0437 1399818115 34.4267
0438 1399820556 34.9625
0439 1399822998 34.9694
0440 1399825439 34.4886
0441 1399827880 34.7604
0442 1399830322 35.5228
0443 1399832763 34.5990
0444 1399835205 35.1137
0445 1399837646 35.1959
0446 1399840087 35.8136
0447 1399842529 35.8254
0448 1399844970 36.4555
0449 1399847412 35.8235
0450 1399849853 35.3933
0451 1399852294 35.1013
0452 1399854736 35.1155
0453 1399857177 35.8477
0454 1399859619 36.5958
0455 1399862060 35.6717
0456 1399864501 35.6706
0457 1399866943 38.0252
0458 1399869384 36.3349
0459 1399871826 36.2664
0460 1399874267 36.3515
0461 1399876708 35.7496
0462 1399879150 35.3625
0463 1399881591 36.2937
0464 1399884033 36.4821
0465 1399886474 36.6656
0466 1399888916 36.8819
0467 1399891357 36.3822
0468 1399893798 36.4482
0469 1399896240 57.5431
0470 1399898681 64.0107
0471 1399901123 36.8061
0472 1399903564 37.3017
0473 1399906005 36.8296
0474 1399908447 36.7027
0475 1399910888 36.9132
0476 1399913330 38.3838
0477 1399915771 37.5928
0478 1399918212 37.4827
0479 1399920654 37.5478
0480 1399923095 37.0795
0481 1399925537 36.7392
0482 1399927978 37.5553
0483 1399930419 37.3962
0484 1399932861 38.2569
0485 1399935302 38.4089
0486 1399937744 37.4289
0487 1399940185 37.3875
0488 1399942626 37.6540
0489 1399945068 37.7407
0490 1399947509 38.1330
0491 1399949951 38.3961
0492 1399952392 38.0435
0493 1399954833 37.7541
0494 1399957275 38.8564
0495 1399959716 38.5179
0496 1399962158 38.4288
0497 1399964599 38.2426
0498 1399967041 38.5838
0499 1399969482 38.4822
0500 1399971923 39.3914
0501 1399974365 44.3259
0502 1399976806 50.0173
0503 1399979248 64.7848
0504 1399981689 43.9022
0505 1399984130 41.1717
0506 1399986572 67.1084
0507 1399989013 90.3137
0508 1399991455 61.7049
0509 1399993896 56.2617
0510 1399996337 436.7561
0511 1399998779 698.1873
0512 1400001220 75.7824
0513 1400003662 47.1117
0514 1400006103 44.2512
0515 1400008544 41.8801
0516 1400010986 43.2241
0517 1400013427 45.0678
0518 1400015869 44.9689
0519 1400018310 39.7788
0520 1400020751 43.7113
0521 1400023193 46.3324
0522 1400025634 39.8652
0523 1400028076 39.3563
0524 1400030517 38.9887
0525 1400032958 39.4693
0526 1400035400 38.7815
0527 1400037841 38.6892
0528 1400040283 39.3775
0529 1400042724 38.6296
0530 1400045166 37.9371
0531 1400047607 40.3614
0532 1400050048 39.0828
0533 1400052490 37.6986
0534 1400054931 37.5878
0535 1400057373 37.8774
0536 1400059814 37.4985
0537 1400062255 37.2285
0538 1400064697 37.1804
0539 1400067138 37.1277
0540 1400069580 36.9318
0541 1400072021 37.3848
0542 1400074462 37.3065
0543 1400076904 37.3847
0544 1400079345 36.7588
0545 1400081787 36.7081
0546 1400084228 37.9107
0547 1400086669 40.2015
0548 1400089111 37.3870
0549 1400091552 36.6744
0550 1400093994 37.0068
0551 1400096435 37.1021
0552 1400098876 36.2939
0553 1400101318 36.2580
0554 1400103759 36.5839
0555 1400106201 36.8811
0556 1400108642 41.4890
0557 1400111083 39.3061
0558 1400113525 36.2721
0559 1400115966 36.4219
0560 1400118408 36.7576
0561 1400120849 36.0742
0562 1400123291 36.3097
0563 1400125732 36.5989
0564 1400128173 36.3922
0565 1400130615 35.9150
0566 1400133056 36.1445
0567 1400135498 36.1892
0568 1400137939 35.6922
0569 1400140380 35.4595
0570 1400142822 35.5591
0571 1400145263 35.7026
0572 1400147705 36.5887
0573 1400150146 35.5924
0574 1400152587 35.3336
0575 1400155029 36.0061
0576 1400157470 35.7725
0577 1400159912 35.4409
0578 1400162353 37.0038
0579 1400164794 35.8945
0580 1400167236 35.7760
0581 1400169677 35.6805
0582 1400172119 36.0519
0583 1400174560 34.8068
0584 1400177001 34.9307
0585 1400179443 35.2342
0586 1400181884 34.8720
0587 1400184326 35.0313
0588 1400186767 36.4468
0589 1400189208 35.1998
0590 1400191650 34.7840
0591 1400194091 35.0437
0592 1400196533 34.3858
0593 1400198974 34.4238
0594 1400201416 35.0506
0595 1400203857 34.6603
0596 1400206298 34.8745
0597 1400208740 35.1157
0598 1400211181 34.3267
0599 1400213623 34.1866
0600 1400216064 34.7521
0601 1400218505 34.3095
0602 1400220947 34.1927
0603 1400223388 34.5043
0604 1400225830 34.1508
0605 1400228271 33.6102
0606 1400230712 34.3042
0607 1400233154 34.1264
0608 1400235595 33.9731
0609 1400238037 33.6534
0610 1400240478 33.8620
0611 1400242919 33.3550
0612 1400245361 33.5623
0613 1400247802 33.9540
0614 1400250244 33.3583
0615 1400252685 33.3387
0616 1400255126 33.6947
0617 1400257568 34.1950
0618 1400260009 37.0646
0619 1400262451 33.5621
0620 1400264892 32.7626
0621 1400267333 32.7784
0622 1400269775 32.9184
0623 1400272216 33.2974
0624 1400274658 32.7694
0625 1400277099 33.8259
0626 1400279541 32.9629
0627 1400281982 33.2923
0628 1400284423 34.8591
0629 1400286865 33.4455
0630 1400289306 32.9519
0631 1400291748 34.8690
0632 1400294189 33.2260
0633 1400296630 32.5787
0634 1400299072 32.3478
0635 1400301513 32.8363
0636 1400303955 34.4092
0637 1400306396 33.0789
0638 1400308837 32.3744
0639 1400311279 32.1798
0640 1400313720 32.2592
0641 1400316162 32.3262
0642 1400318603 32.0534
0643 1400321044 32.2927
0644 1400323486 32.9110
0645 1400325927 31.6449
0646 1400328369 31.6958
0647 1400330810 31.9302
0648 1400333251 31.8363
0649 1400335693 31.7372
0650 1400338134 32.3072
0651 1400340576 31.9468
0652 1400343017 33.3032
0653 1400345458 33.3021
0654 1400347900 31.8886
0655 1400350341 31.4603
0656 1400352783 32.6289
0657 1400355224 31.6832
0658 1400357666 31.4751
0659 1400360107 31.4060
0660 1400362548 31.2550
0661 1400364990 31.4594
0662 1400367431 31.2462
0663 1400369873 31.0351
0664 1400372314 31.2292
0665 1400374755 31.5368
0666 1400377197 31.8097
0667 1400379638 32.7263
0668 1400382080 31.6016
0669 1400384521 31.2191
0670 1400386962 31.9733
0671 1400389404 32.1311
0672 1400391845 31.5583
0673 1400394287 31.1631
0674 1400396728 31.0884
0675 1400399169 31.5622
0676 1400401611 31.2866
0677 1400404052 31.0032
0678 1400406494 31.6655
0679 1400408935 30.9377
0680 1400411376 31.5260
0681 1400413818 33.4627
0682 1400416259 31.5689
0683 1400418701 30.7807
0684 1400421142 30.9637
0685 1400423583 30.4153
0686 1400426025 30.7115
0687 1400428466 31.2221
0688 1400430908 30.8035
0689 1400433349 30.8627
0690 1400435791 30.7573
0691 1400438232 30.6686
0692 1400440673 30.6133
0693 1400443115 30.8316
0694 1400445556 30.5140
0695 1400447998 30.6097
0696 1400450439 30.8002
0697 1400452880 30.6909
0698 1400455322 30.6790
0699 1400457763 31.1056
0700 1400460205 30.6627
0701 1400462646 30.6148
0702 1400465087 31.9596
0703 1400467529 31.4641
0704 1400469970 31.0885
0705 1400472412 30.9443
0706 1400474853 32.4988
0707 1400477294 30.8181
0708 1400479736 30.5847
0709 1400482177 30.8162
0710 1400484619 30.7893
0711 1400487060 30.8603
0712 1400489501 31.1086
0713 1400491943 30.6363
0714 1400494384 30.5386
0715 1400496826 31.4690
0716 1400499267 31.2527
0717 1400501708 30.6493
0718 1400504150 31.2931
0719 1400506591 30.5751
0720 1400509033 30.4940
0721 1400511474 30.7112
0722 1400513916 30.7034
0723 1400516357 30.6711
0724 1400518798 31.1513
0725 1400521240 30.8354
0726 1400523681 30.7146
0727 1400526123 31.7493
0728 1400528564 31.3304
0729 1400531005 30.6945
0730 1400533447 31.6957
0731 1400535888 32.2783
0732 1400538330 31.4999
0733 1400540771 31.0116
0734 1400543212 31.6217
0735 1400545654 30.8782
0736 1400548095 30.6812
0737 1400550537 30.9233
0738 1400552978 30.8125
0739 1400555419 31.0630
0740 1400557861 31.7348
0741 1400560302 31.1510
0742 1400562744 30.6912
0743 1400565185 31.1878
0744 1400567626 30.8014
0745 1400570068 30.8855
0746 1400572509 31.2200
0747 1400574951 30.6867
0748 1400577392 30.7615
0749 1400579833 31.3864
0750 1400582275 31.0119
0751 1400584716 31.1686
0752 1400587158 32.8090
0753 1400589599 31.6394
0754 1400592041 31.0807
0755 1400594482 33.3940
0756 1400596923 34.1354
0757 1400599365 31.2051
0758 1400601806 31.1255
0759 1400604248 31.4740
0760 1400606689 31.1079
0761 1400609130 31.3719
0762 1400611572 31.4373
0763 1400614013 31.3091
0764 1400616455 31.1644
0765 1400618896 31.3368
0766 1400621337 31.3623
0767 1400623779 31.1575
0768 1400626220 32.0168
0769 1400628662 31.3700
0770 1400631103 31.5257
0771 1400633544 31.1299
0772 1400635986 30.9933
0773 1400638427 31.7626
0774 1400640869 32.3266
0775 1400643310 31.7846
0776 1400645751 31.6090
0777 1400648193 32.5854
0778 1400650634 31.5051
0779 1400653076 31.6664
0780 1400655517 31.5777
0781 1400657958 31.6538
0782 1400660400 31.0154
0783 1400662841 31.9191
0784 1400665283 31.9420
0785 1400667724 31.3221
0786 1400670166 32.2720
0787 1400672607 38.5934
0788 1400675048 49.1139
0789 1400677490 33.4362
0790 1400679931 31.6695
0791 1400682373 31.5145
0792 1400684814 31.3329
0793 1400687255 32.1633
0794 1400689697 31.9581
0795 1400692138 36.7900
0796 1400694580 38.8740
0797 1400697021 33.7373
0798 1400699462 31.3260
0799 1400701904 31.9954
0800 1400704345 31.4196
0801 1400706787 31.4734
0802 1400709228 32.2476
0803 1400711669 31.4460
0804 1400714111 31.6573
0805 1400716552 33.7536
0806 1400718994 32.4468
0807 1400721435 31.3686
0808 1400723876 31.5074
0809 1400726318 31.2755
0810 1400728759 31.6336
0811 1400731201 31.4298
0812 1400733642 31.4545
0813 1400736083 31.5679
0814 1400738525 31.3294
0815 1400740966 31.3575
0816 1400743408 30.8605
0817 1400745849 31.4467
0818 1400748291 31.7863
0819 1400750732 30.8936
0820 1400753173 30.9804
0821 1400755615 31.1502
0822 1400758056 30.8732
0823 1400760498 31.1319
0824 1400762939 31.2092
0825 1400765380 30.8866
0826 1400767822 32.8282
0827 1400770263 32.5621
0828 1400772705 30.9191
0829 1400775146 30.7027
0830 1400777587 32.0595
0831 1400780029 31.2600
0832 1400782470 30.6135
0833 1400784912 30.8886
0834 1400787353 31.1645
0835 1400789794 30.7558
0836 1400792236 30.9031
0837 1400794677 30.3721
0838 1400797119 30.2936
0839 1400799560 31.2845
0840 1400802001 30.1626
0841 1400804443 30.1071
0842 1400806884 29.9504
0843 1400809326 29.8774
0844 1400811767 29.7548
0845 1400814208 29.9181
0846 1400816650 29.7767
0847 1400819091 29.7461
0848 1400821533 30.1935
0849 1400823974 30.7922
0850 1400826416 29.2645
0851 1400828857 29.8399
0852 1400831298 29.5490
0853 1400833740 29.0004
0854 1400836181 28.9961
0855 1400838623 29.7941
0856 1400841064 29.0018
0857 1400843505 29.1257
0858 1400845947 28.9355
0859 1400848388 28.6060
0860 1400850830 28.5241
0861 1400853271 28.7189
0862 1400855712 28.6389
0863 1400858154 28.3452
0864 1400860595 27.8991
0865 1400863037 27.4585
0866 1400865478 27.7607
0867 1400867919 27.7634
0868 1400870361 27.5269
0869 1400872802 27.0606
0870 1400875244 27.4121
0871 1400877685 27.2819
0872 1400880126 27.2200
0873 1400882568 27.0453
0874 1400885009 27.1982
0875 1400887451 30.4335
0876 1400889892 28.3504
0877 1400892333 27.0163
0878 1400894775 26.4330
0879 1400897216 26.5013
0880 1400899658 27.0784
0881 1400902099 25.9877
0882 1400904541 25.7257
0883 1400906982 25.7264
0884 1400909423 25.3013
0885 1400911865 25.2219
0886 1400914306 25.0572
0887 1400916748 24.8996
0888 1400919189 24.5555
0889 1400921630 24.7586
0890 1400924072 24.6013
0891 1400926513 24.7654
0892 1400928955 24.9867
0893 1400931396 23.9952
0894 1400933837 23.7460
0895 1400936279 23.7679
0896 1400938720 23.4515
0897 1400941162 23.1635
0898 1400943603 23.6316
0899 1400946044 23.2211
0900 1400948486 22.9421
0901 1400950927 23.4203
0902 1400953369 22.4435
0903 1400955810 22.1726
0904 1400958251 22.9176
0905 1400960693 23.1837
0906 1400963134 22.2447
0907 1400965576 22.5531
0908 1400968017 21.6864
0909 1400970458 21.2578
0910 1400972900 21.4497
0911 1400975341 21.3277
0912 1400977783 20.9587
0913 1400980224 20.6686
0914 1400982666 20.4199
0915 1400985107 20.1717
0916 1400987548 20.0379
0917 1400989990 20.3439
0918 1400992431 19.7798
0919 1400994873 19.5097
0920 1400997314 19.1407
0921 1400999755 19.0107
0922 1401002197 18.9152
0923 1401004638 18.7795
0924 1401007080 18.5659
0925 1401009521 18.5755
0926 1401011962 18.5450
0927 1401014404 18.0331
0928 1401016845 17.6938
0929 1401019287 17.9912
0930 1401021728 17.7913
0931 1401024169 17.1974
0932 1401026611 17.3518
0933 1401029052 17.1699
0934 1401031494 16.6744
0935 1401033935 16.4820
0936 1401036376 16.2971
0937 1401038818 16.0279
0938 1401041259 15.9233
0939 1401043701 16.1739
0940 1401046142 15.7247
0941 1401048583 15.4689
0942 1401051025 15.0050
0943 1401053466 15.0014
0944 1401055908 14.8762
0945 1401058349 14.7231
0946 1401060791 14.5358
0947 1401063232 14.3246
0948 1401065673 14.3823
0949 1401068115 14.1353
0950 1401070556 13.8666
0951 1401072998 13.8817
0952 1401075439 13.5826
0953 1401077880 13.3376
0954 1401080322 13.5950
0955 1401082763 13.6253
0956 1401085205 13.0186
0957 1401087646 13.3433
0958 1401090087 12.7914
0959 1401092529 12.4787
0960 1401094970 12.3261
0961 1401097412 12.5032
0962 1401099853 12.2534
0963 1401102294 11.9907
0964 1401104736 11.5819
0965 1401107177 11.3880
0966 1401109619 11.3030
0967 1401112060 11.2334
0968 1401114501 11.0048
0969 1401116943 10.9046
0970 1401119384 10.7158
0971 1401121826 10.6446
0972 1401124267 10.6131
0973 1401126708 10.5200
0974 1401129150 10.2852
0975 1401131591 10.1715
0976 1401134033 10.3428
0977 1401136474 9.8187
0978 1401138916 9.6144
0979 1401141357 9.6803
0980 1401143798 9.4058
0981 1401146240 9.2906
0982 1401148681 9.2906
0983 1401151123 9.0801
0984 1401153564 8.9367
0985 1401156005 8.8108
0986 1401158447 8.7009
0987 1401160888 8.5423
0988 1401163330 8.5504
0989 1401165771 8.4508
0990 1401168212 8.2320
0991 1401170654 8.1755
0992 1401173095 8.2237
0993 1401175537 8.0620
0994 1401177978 8.1312
0995 1401180419 8.0468
0996 1401182861 7.7925
0997 1401185302 7.7736
0998 1401187744 8.0411
0999 1401190185 7.7295
1000 1401192626 7.6276
1001 1401195068 7.7549
1002 1401197509 11.1761
1003 1401199951 8.7795
1004 1401202392 7.5868
1005 1401204833 7.1086
1006 1401207275 7.0507
1007 1401209716 7.0297
1008 1401212158 6.9467
1009 1401214599 7.0289
1010 1401217041 6.8939
1011 1401219482 6.7746
1012 1401221923 6.8116
1013 1401224365 6.7696
1014 1401226806 6.6449
1015 1401229248 6.6055
1016 1401231689 6.6211
1017 1401234130 6.5706
1018 1401236572 6.5548
1019 1401239013 6.5098
1020 1401241455 6.4936
1021 1401243896 6.4752
1022 1401246337 6.4999
1023 1401248779 6.5550
