# File: 20-05-31T224347.ast
# NOTEA     = None Attached.  RTLSDR Dongle Test
# NOTEB     = Spectral Integration
# OBSERVER  = Science Aficionado
# DEVICE    = rtlsdr=0
# DATADIR   = ../data/
# SITE      = None Attached.  RTLSDR Dongle Test
# CITY      = Green Bank
# REGION    = West Virginia
# COUNTRY   = US
# TELTYPE   = Bubble Wrap  Horn
# FRAME     = TOPO
# GAIN1     = 49.0
# GAIN2     = 11.0
# GAIN3     = 11.0
# GAIN4     = 0.0
# Count     = 10000
# CenterFreq= 1400000000.0
# Bandwidth = 2500000.0
# Duration  = 41.94947
# DeltaX    = 5859.375
# TSYS      = 200.0
# TRX       = 100.0
# TRMS      = 2.0
# TINT      = 1.0
# KPERC     = 100.0
# GAINFACT  = 1.0
# BUNIT     = Counts
# NCHAN     = 1024
# NSPEC     = 1
# NTIME     = 0
# NSAMPLES  = 0
# EPEAK     = 4.10875183718
# ERMS      = 0.995973393526
# EMJD      = 58568.808999981004 
# REFCHAN   = 512.0
# REFSAMPL  = 256.0
# NAVE      = 100
# NMEDIAN   = 1024
# Fft_rate  = 5000
# UTC       = 2020-05-31 22:43:47.126391
# SECONDS   =       0.0000000000 
# LST       = 10:03:57.630
# AZ        = 180.0
# EL        = 90.0
# TELLON    = -79:50:22.920
# TELLAT    = +38:25:59.160
# RA        = 10:01:32.420
# DEC       = +38:37:36.400
# GALLON    = 183:53:52.90
# GALLAT    = +52:53:22.00
# ALT_SUN   = +19:51:54.8
# AZ_SUN    = +282:56:44.1
# ETAA      = 0.8
# ETAB      = 0.99
# POLANGLE  = 0.0
# TELSIZEAM = 1.0
# TELSIZEBM = 1.0
# AST_VERS  = 05.01
0000 1398751220 6.7790
0001 1398753662 6.6758
0002 1398756103 6.7878
0003 1398758544 6.8155
0004 1398760986 6.8864
0005 1398763427 6.9350
0006 1398765869 6.7734
0007 1398768310 6.7423
0008 1398770751 6.6596
0009 1398773193 6.8078
0010 1398775634 6.9679
0011 1398778076 6.9483
0012 1398780517 6.9398
0013 1398782958 6.9108
0014 1398785400 6.8775
0015 1398787841 7.2891
0016 1398790283 7.0830
0017 1398792724 7.1079
0018 1398795166 7.6088
0019 1398797607 10.7916
0020 1398800048 8.3064
0021 1398802490 7.3246
0022 1398804931 7.2480
0023 1398807373 7.2890
0024 1398809814 7.3615
0025 1398812255 7.5328
0026 1398814697 7.5314
0027 1398817138 7.5089
0028 1398819580 7.6608
0029 1398822021 7.7536
0030 1398824462 7.8046
0031 1398826904 7.8962
0032 1398829345 7.9595
0033 1398831787 7.9520
0034 1398834228 8.2402
0035 1398836669 8.5422
0036 1398839111 8.3041
0037 1398841552 8.4319
0038 1398843994 8.5998
0039 1398846435 8.5456
0040 1398848876 8.6801
0041 1398851318 8.8513
0042 1398853759 8.7920
0043 1398856201 9.0163
0044 1398858642 9.2854
0045 1398861083 9.1777
0046 1398863525 9.1825
0047 1398865966 9.5208
0048 1398868408 9.6022
0049 1398870849 9.6209
0050 1398873291 9.9214
0051 1398875732 9.8878
0052 1398878173 10.1954
0053 1398880615 10.2742
0054 1398883056 10.2383
0055 1398885498 10.6103
0056 1398887939 11.3716
0057 1398890380 10.9318
0058 1398892822 10.9232
0059 1398895263 11.7863
0060 1398897705 11.9848
0061 1398900146 11.5278
0062 1398902587 11.4691
0063 1398905029 11.6001
0064 1398907470 11.8847
0065 1398909912 12.0727
0066 1398912353 12.4332
0067 1398914794 12.8259
0068 1398917236 12.5378
0069 1398919677 12.7121
0070 1398922119 12.7592
0071 1398924560 13.0117
0072 1398927001 13.4799
0073 1398929443 13.2830
0074 1398931884 13.4913
0075 1398934326 13.5874
0076 1398936767 13.7011
0077 1398939208 13.8497
0078 1398941650 14.2834
0079 1398944091 14.1338
0080 1398946533 14.3203
0081 1398948974 14.7529
0082 1398951416 14.6425
0083 1398953857 14.9192
0084 1398956298 15.4107
0085 1398958740 15.5880
0086 1398961181 15.3741
0087 1398963623 15.7220
0088 1398966064 15.7531
0089 1398968505 16.0799
0090 1398970947 16.5138
0091 1398973388 16.7453
0092 1398975830 16.5169
0093 1398978271 16.9719
0094 1398980712 17.0838
0095 1398983154 16.9739
0096 1398985595 17.3840
0097 1398988037 18.2827
0098 1398990478 17.6779
0099 1398992919 17.7611
0100 1398995361 17.7985
0101 1398997802 17.9997
0102 1399000244 18.2904
0103 1399002685 18.4349
0104 1399005126 18.4968
0105 1399007568 19.0230
0106 1399010009 19.4437
0107 1399012451 19.0551
0108 1399014892 19.3108
0109 1399017333 20.7244
0110 1399019775 20.0585
0111 1399022216 19.7464
0112 1399024658 20.2517
0113 1399027099 20.2935
0114 1399029541 20.2079
0115 1399031982 20.4392
0116 1399034423 20.6087
0117 1399036865 20.7043
0118 1399039306 21.1781
0119 1399041748 21.1660
0120 1399044189 21.0456
0121 1399046630 21.3630
0122 1399049072 21.5094
0123 1399051513 21.5383
0124 1399053955 21.9080
0125 1399056396 22.5311
0126 1399058837 22.2696
0127 1399061279 22.5063
0128 1399063720 23.0764
0129 1399066162 22.5414
0130 1399068603 23.2828
0131 1399071044 23.6342
0132 1399073486 23.1783
0133 1399075927 23.3440
0134 1399078369 24.2202
0135 1399080810 23.5598
0136 1399083251 23.6177
0137 1399085693 24.8764
0138 1399088134 24.8135
0139 1399090576 24.1934
0140 1399093017 25.1251
0141 1399095458 25.4722
0142 1399097900 24.6791
0143 1399100341 25.0513
0144 1399102783 25.0844
0145 1399105224 24.9159
0146 1399107666 25.1812
0147 1399110107 25.5697
0148 1399112548 25.3072
0149 1399114990 25.5964
0150 1399117431 25.8098
0151 1399119873 25.9517
0152 1399122314 26.4036
0153 1399124755 26.3580
0154 1399127197 26.3975
0155 1399129638 26.8190
0156 1399132080 27.1289
0157 1399134521 29.1595
0158 1399136962 29.5934
0159 1399139404 28.7904
0160 1399141845 27.1011
0161 1399144287 26.9254
0162 1399146728 27.4252
0163 1399149169 27.3779
0164 1399151611 27.5039
0165 1399154052 28.0144
0166 1399156494 27.7002
0167 1399158935 27.8741
0168 1399161376 27.9301
0169 1399163818 27.7554
0170 1399166259 28.4655
0171 1399168701 28.8256
0172 1399171142 28.4172
0173 1399173583 28.3562
0174 1399176025 28.3420
0175 1399178466 28.5871
0176 1399180908 28.7143
0177 1399183349 29.3843
0178 1399185791 29.2749
0179 1399188232 29.2767
0180 1399190673 30.5022
0181 1399193115 29.4671
0182 1399195556 28.8781
0183 1399197998 30.1667
0184 1399200439 30.9926
0185 1399202880 29.1597
0186 1399205322 29.6887
0187 1399207763 30.6168
0188 1399210205 29.9104
0189 1399212646 29.7042
0190 1399215087 30.0766
0191 1399217529 29.7684
0192 1399219970 30.3473
0193 1399222412 31.2075
0194 1399224853 30.3068
0195 1399227294 29.7313
0196 1399229736 30.0800
0197 1399232177 29.8864
0198 1399234619 29.8887
0199 1399237060 30.4715
0200 1399239501 30.2361
0201 1399241943 29.9732
0202 1399244384 31.3625
0203 1399246826 31.0089
0204 1399249267 30.2930
0205 1399251708 30.5292
0206 1399254150 30.5940
0207 1399256591 30.5119
0208 1399259033 31.2448
0209 1399261474 31.1984
0210 1399263916 30.6136
0211 1399266357 30.8117
0212 1399268798 31.1279
0213 1399271240 30.9755
0214 1399273681 31.4159
0215 1399276123 31.6682
0216 1399278564 30.5366
0217 1399281005 30.4271
0218 1399283447 30.8491
0219 1399285888 31.6114
0220 1399288330 32.4861
0221 1399290771 31.1658
0222 1399293212 30.9158
0223 1399295654 31.0037
0224 1399298095 31.2657
0225 1399300537 30.7179
0226 1399302978 30.9327
0227 1399305419 31.8221
0228 1399307861 31.6943
0229 1399310302 31.6016
0230 1399312744 33.0586
0231 1399315185 31.2813
0232 1399317626 30.8162
0233 1399320068 31.9007
0234 1399322509 31.5520
0235 1399324951 30.5725
0236 1399327392 31.0855
0237 1399329833 36.6809
0238 1399332275 33.0279
0239 1399334716 31.2359
0240 1399337158 31.4625
0241 1399339599 31.1849
0242 1399342041 31.3923
0243 1399344482 31.3699
0244 1399346923 30.8557
0245 1399349365 31.0889
0246 1399351806 31.2747
0247 1399354248 30.5729
0248 1399356689 31.0286
0249 1399359130 31.1319
0250 1399361572 31.1117
0251 1399364013 31.7617
0252 1399366455 31.9047
0253 1399368896 32.2718
0254 1399371337 31.6481
0255 1399373779 32.4502
0256 1399376220 31.2488
0257 1399378662 31.2338
0258 1399381103 32.0774
0259 1399383544 31.3370
0260 1399385986 31.0312
0261 1399388427 31.1866
0262 1399390869 31.1772
0263 1399393310 30.7773
0264 1399395751 30.9954
0265 1399398193 31.2173
0266 1399400634 31.1344
0267 1399403076 31.0914
0268 1399405517 31.0300
0269 1399407958 30.7036
0270 1399410400 30.9461
0271 1399412841 31.3808
0272 1399415283 30.6351
0273 1399417724 30.7179
0274 1399420166 30.8823
0275 1399422607 31.0451
0276 1399425048 30.6923
0277 1399427490 31.1012
0278 1399429931 30.7121
0279 1399432373 31.2260
0280 1399434814 32.2603
0281 1399437255 30.8646
0282 1399439697 31.0927
0283 1399442138 32.8736
0284 1399444580 31.1324
0285 1399447021 30.4898
0286 1399449462 31.0217
0287 1399451904 31.4337
0288 1399454345 30.6126
0289 1399456787 31.0129
0290 1399459228 30.6045
0291 1399461669 30.3890
0292 1399464111 30.6150
0293 1399466552 30.4261
0294 1399468994 30.4053
0295 1399471435 31.0778
0296 1399473876 31.4178
0297 1399476318 30.6996
0298 1399478759 30.7566
0299 1399481201 30.5898
0300 1399483642 30.4819
0301 1399486083 31.3504
0302 1399488525 31.3758
0303 1399490966 30.5589
0304 1399493408 31.2886
0305 1399495849 31.3857
0306 1399498291 30.6748
0307 1399500732 31.7094
0308 1399503173 31.6844
0309 1399505615 30.4312
0310 1399508056 30.5886
0311 1399510498 30.7815
0312 1399512939 30.5996
0313 1399515380 30.5000
0314 1399517822 30.8289
0315 1399520263 30.4839
0316 1399522705 30.3574
0317 1399525146 31.3436
0318 1399527587 31.0260
0319 1399530029 31.0172
0320 1399532470 31.0855
0321 1399534912 31.0228
0322 1399537353 30.4566
0323 1399539794 31.3092
0324 1399542236 30.9766
0325 1399544677 30.4996
0326 1399547119 31.3964
0327 1399549560 31.2927
0328 1399552001 30.8305
0329 1399554443 31.8967
0330 1399556884 32.2560
0331 1399559326 31.2863
0332 1399561767 32.0249
0333 1399564208 33.5432
0334 1399566650 31.1463
0335 1399569091 31.0963
0336 1399571533 31.4696
0337 1399573974 30.5533
0338 1399576416 31.0389
0339 1399578857 31.5110
0340 1399581298 31.1183
0341 1399583740 31.0864
0342 1399586181 31.8842
0343 1399588623 32.2491
0344 1399591064 31.5640
0345 1399593505 31.6333
0346 1399595947 31.5721
0347 1399598388 30.8554
0348 1399600830 31.3203
0349 1399603271 31.5610
0350 1399605712 31.7669
0351 1399608154 31.4024
0352 1399610595 31.5188
0353 1399613037 30.9303
0354 1399615478 32.2384
0355 1399617919 31.9261
0356 1399620361 32.1782
0357 1399622802 33.0450
0358 1399625244 33.7139
0359 1399627685 31.4452
0360 1399630126 31.9373
0361 1399632568 32.3263
0362 1399635009 31.7249
0363 1399637451 32.0847
0364 1399639892 32.1272
0365 1399642333 31.8309
0366 1399644775 32.0859
0367 1399647216 32.5987
0368 1399649658 32.2840
0369 1399652099 32.1958
0370 1399654541 32.5539
0371 1399656982 32.3342
0372 1399659423 32.1148
0373 1399661865 32.4090
0374 1399664306 31.9934
0375 1399666748 32.4213
0376 1399669189 33.1429
0377 1399671630 32.5881
0378 1399674072 32.5904
0379 1399676513 36.9127
0380 1399678955 35.1288
0381 1399681396 33.1973
0382 1399683837 34.7186
0383 1399686279 35.7017
0384 1399688720 32.9984
0385 1399691162 33.2025
0386 1399693603 33.5630
0387 1399696044 33.2255
0388 1399698486 33.3603
0389 1399700927 33.7866
0390 1399703369 32.9317
0391 1399705810 32.9094
0392 1399708251 33.3948
0393 1399710693 33.2592
0394 1399713134 33.5245
0395 1399715576 33.8898
0396 1399718017 34.2883
0397 1399720458 35.3303
0398 1399722900 34.0605
0399 1399725341 33.4849
0400 1399727783 33.8622
0401 1399730224 34.2675
0402 1399732666 33.5785
0403 1399735107 33.7799
0404 1399737548 34.1224
0405 1399739990 33.9637
0406 1399742431 34.4264
0407 1399744873 36.2127
0408 1399747314 36.0000
0409 1399749755 39.1773
0410 1399752197 37.3539
0411 1399754638 34.2498
0412 1399757080 34.6826
0413 1399759521 35.0788
0414 1399761962 34.5657
0415 1399764404 34.6286
0416 1399766845 34.4464
0417 1399769287 34.9561
0418 1399771728 34.7084
0419 1399774169 35.3003
0420 1399776611 35.7587
0421 1399779052 35.2377
0422 1399781494 35.2412
0423 1399783935 35.0651
0424 1399786376 35.6894
0425 1399788818 35.7299
0426 1399791259 37.3261
0427 1399793701 40.2772
0428 1399796142 35.6905
0429 1399798583 36.3896
0430 1399801025 35.9487
0431 1399803466 35.8140
0432 1399805908 36.7103
0433 1399808349 37.2398
0434 1399810791 36.0115
0435 1399813232 36.2922
0436 1399815673 36.1483
0437 1399818115 35.6977
0438 1399820556 36.4200
0439 1399822998 36.4094
0440 1399825439 36.4385
0441 1399827880 36.5201
0442 1399830322 36.8172
0443 1399832763 36.1621
0444 1399835205 36.5324
0445 1399837646 36.6271
0446 1399840087 36.4310
0447 1399842529 36.7909
0448 1399844970 38.0039
0449 1399847412 37.1535
0450 1399849853 36.4890
0451 1399852294 36.8261
0452 1399854736 36.8532
0453 1399857177 37.4094
0454 1399859619 38.4580
0455 1399862060 37.0357
0456 1399864501 37.5437
0457 1399866943 40.7010
0458 1399869384 38.6176
0459 1399871826 37.6756
0460 1399874267 37.5332
0461 1399876708 37.4271
0462 1399879150 37.4067
0463 1399881591 37.7807
0464 1399884033 37.6714
0465 1399886474 38.4828
0466 1399888916 38.7972
0467 1399891357 37.6037
0468 1399893798 37.6832
0469 1399896240 70.5052
0470 1399898681 80.3257
0471 1399901123 39.1758
0472 1399903564 39.1312
0473 1399906005 38.2980
0474 1399908447 38.1752
0475 1399910888 38.0674
0476 1399913330 39.9570
0477 1399915771 39.8170
0478 1399918212 38.8541
0479 1399920654 39.0774
0480 1399923095 38.5914
0481 1399925537 38.5220
0482 1399927978 39.6173
0483 1399930419 39.2336
0484 1399932861 39.2460
0485 1399935302 39.9022
0486 1399937744 38.8361
0487 1399940185 39.6902
0488 1399942626 39.3308
0489 1399945068 39.1847
0490 1399947509 39.1406
0491 1399949951 39.8668
0492 1399952392 40.1964
0493 1399954833 39.3165
0494 1399957275 40.2243
0495 1399959716 40.0180
0496 1399962158 39.9434
0497 1399964599 40.0608
0498 1399967041 40.1587
0499 1399969482 40.2134
0500 1399971923 41.0518
0501 1399974365 46.4758
0502 1399976806 51.7765
0503 1399979248 65.9284
0504 1399981689 48.9107
0505 1399984130 44.3323
0506 1399986572 67.3690
0507 1399989013 92.6829
0508 1399991455 66.1105
0509 1399993896 58.9999
0510 1399996337 434.7194
0511 1399998779 664.2481
0512 1400001220 69.3652
0513 1400003662 48.6035
0514 1400006103 46.3459
0515 1400008544 43.1826
0516 1400010986 44.0900
0517 1400013427 48.3927
0518 1400015869 49.5792
0519 1400018310 41.4493
0520 1400020751 45.5652
0521 1400023193 48.3399
0522 1400025634 41.3404
0523 1400028076 40.8791
0524 1400030517 40.7169
0525 1400032958 41.2144
0526 1400035400 40.0501
0527 1400037841 40.3831
0528 1400040283 41.8738
0529 1400042724 40.8935
0530 1400045166 39.7776
0531 1400047607 42.1076
0532 1400050048 41.1103
0533 1400052490 39.0013
0534 1400054931 39.5717
0535 1400057373 39.2883
0536 1400059814 39.3997
0537 1400062255 39.2673
0538 1400064697 38.8479
0539 1400067138 38.4505
0540 1400069580 38.6760
0541 1400072021 39.1462
0542 1400074462 38.6260
0543 1400076904 38.4098
0544 1400079345 38.5227
0545 1400081787 37.8664
0546 1400084228 39.0443
0547 1400086669 41.4949
0548 1400089111 39.0063
0549 1400091552 37.9772
0550 1400093994 38.7727
0551 1400096435 38.7178
0552 1400098876 37.9560
0553 1400101318 38.0554
0554 1400103759 38.3320
0555 1400106201 38.3014
0556 1400108642 44.3642
0557 1400111083 41.8677
0558 1400113525 38.1565
0559 1400115966 38.1846
0560 1400118408 38.5997
0561 1400120849 37.6402
0562 1400123291 38.0492
0563 1400125732 38.4085
0564 1400128173 37.9943
0565 1400130615 36.9398
0566 1400133056 37.7616
0567 1400135498 37.3761
0568 1400137939 37.3166
0569 1400140380 37.2240
0570 1400142822 37.2185
0571 1400145263 37.4453
0572 1400147705 37.8782
0573 1400150146 37.1982
0574 1400152587 37.0959
0575 1400155029 38.4177
0576 1400157470 37.5633
0577 1400159912 37.2728
0578 1400162353 39.3731
0579 1400164794 38.0414
0580 1400167236 37.6300
0581 1400169677 37.8827
0582 1400172119 37.6913
0583 1400174560 36.5271
0584 1400177001 36.6779
0585 1400179443 36.5208
0586 1400181884 36.4115
0587 1400184326 36.6497
0588 1400186767 39.1164
0589 1400189208 36.8963
0590 1400191650 36.6898
0591 1400194091 36.6346
0592 1400196533 36.1002
0593 1400198974 36.1276
0594 1400201416 36.5478
0595 1400203857 36.0201
0596 1400206298 36.0349
0597 1400208740 36.7405
0598 1400211181 36.0737
0599 1400213623 36.1105
0600 1400216064 36.3901
0601 1400218505 35.9876
0602 1400220947 35.6463
0603 1400223388 35.8940
0604 1400225830 35.2435
0605 1400228271 35.2299
0606 1400230712 36.0056
0607 1400233154 35.5186
0608 1400235595 35.2592
0609 1400238037 35.1429
0610 1400240478 35.4079
0611 1400242919 34.9873
0612 1400245361 34.9337
0613 1400247802 34.9665
0614 1400250244 34.9692
0615 1400252685 35.0017
0616 1400255126 35.5557
0617 1400257568 36.4153
0618 1400260009 39.9520
0619 1400262451 34.9944
0620 1400264892 34.3936
0621 1400267333 34.5367
0622 1400269775 34.8942
0623 1400272216 34.2173
0624 1400274658 34.5437
0625 1400277099 35.9174
0626 1400279541 34.8327
0627 1400281982 34.8517
0628 1400284423 36.4594
0629 1400286865 34.8076
0630 1400289306 34.1001
0631 1400291748 36.1883
0632 1400294189 35.0532
0633 1400296630 33.8310
0634 1400299072 34.0149
0635 1400301513 34.7332
0636 1400303955 36.4536
0637 1400306396 34.4264
0638 1400308837 34.1074
0639 1400311279 33.9492
0640 1400313720 33.7967
0641 1400316162 34.1455
0642 1400318603 33.4100
0643 1400321044 34.1687
0644 1400323486 34.4984
0645 1400325927 33.6803
0646 1400328369 33.4090
0647 1400330810 33.8268
0648 1400333251 33.1974
0649 1400335693 33.5496
0650 1400338134 33.4851
0651 1400340576 33.4653
0652 1400343017 34.1761
0653 1400345458 35.0324
0654 1400347900 33.2661
0655 1400350341 32.9520
0656 1400352783 34.1383
0657 1400355224 33.4769
0658 1400357666 33.3800
0659 1400360107 32.9426
0660 1400362548 33.0296
0661 1400364990 32.9831
0662 1400367431 32.8737
0663 1400369873 32.8556
0664 1400372314 32.4094
0665 1400374755 33.1722
0666 1400377197 33.7488
0667 1400379638 34.4814
0668 1400382080 32.9879
0669 1400384521 32.7960
0670 1400386962 33.7673
0671 1400389404 34.0440
0672 1400391845 33.2104
0673 1400394287 32.3308
0674 1400396728 32.8468
0675 1400399169 32.9418
0676 1400401611 32.9579
0677 1400404052 33.1654
0678 1400406494 33.6201
0679 1400408935 32.5668
0680 1400411376 32.8299
0681 1400413818 35.0105
0682 1400416259 32.9942
0683 1400418701 32.4255
0684 1400421142 32.7110
0685 1400423583 32.2805
0686 1400426025 32.3835
0687 1400428466 32.7131
0688 1400430908 32.6135
0689 1400433349 32.2199
0690 1400435791 32.4806
0691 1400438232 32.2070
0692 1400440673 32.2185
0693 1400443115 32.7714
0694 1400445556 32.4243
0695 1400447998 32.1886
0696 1400450439 32.4889
0697 1400452880 32.4921
0698 1400455322 32.4385
0699 1400457763 32.7867
0700 1400460205 32.5471
0701 1400462646 32.3913
0702 1400465087 34.1869
0703 1400467529 34.2362
0704 1400469970 32.1923
0705 1400472412 32.9592
0706 1400474853 34.9074
0707 1400477294 32.5514
0708 1400479736 32.3623
0709 1400482177 32.2357
0710 1400484619 32.0597
0711 1400487060 32.5000
0712 1400489501 32.5961
0713 1400491943 32.6055
0714 1400494384 32.5529
0715 1400496826 33.4040
0716 1400499267 33.0936
0717 1400501708 32.2570
0718 1400504150 32.9597
0719 1400506591 32.6375
0720 1400509033 32.1819
0721 1400511474 32.8997
0722 1400513916 32.5025
0723 1400516357 32.4285
0724 1400518798 33.0002
0725 1400521240 32.3062
0726 1400523681 32.9347
0727 1400526123 34.0035
0728 1400528564 32.7977
0729 1400531005 32.1309
0730 1400533447 33.6544
0731 1400535888 34.5798
0732 1400538330 33.1681
0733 1400540771 33.1550
0734 1400543212 33.7898
0735 1400545654 32.5017
0736 1400548095 32.5956
0737 1400550537 32.9721
0738 1400552978 32.4227
0739 1400555419 32.6419
0740 1400557861 33.3798
0741 1400560302 32.4729
0742 1400562744 32.5994
0743 1400565185 32.9281
0744 1400567626 32.5949
0745 1400570068 32.3587
0746 1400572509 32.8925
0747 1400574951 32.6651
0748 1400577392 32.5008
0749 1400579833 32.7780
0750 1400582275 32.7908
0751 1400584716 32.8779
0752 1400587158 34.8728
0753 1400589599 33.6345
0754 1400592041 32.4752
0755 1400594482 36.0395
0756 1400596923 36.7294
0757 1400599365 33.2019
0758 1400601806 33.1902
0759 1400604248 32.9581
0760 1400606689 32.8257
0761 1400609130 33.2550
0762 1400611572 32.7061
0763 1400614013 32.6214
0764 1400616455 32.7207
0765 1400618896 33.4141
0766 1400621337 32.7582
0767 1400623779 32.7273
0768 1400626220 33.9800
0769 1400628662 33.0734
0770 1400631103 33.1734
0771 1400633544 33.0777
0772 1400635986 32.7639
0773 1400638427 32.9568
0774 1400640869 33.8972
0775 1400643310 32.9153
0776 1400645751 33.2052
0777 1400648193 34.2674
0778 1400650634 33.4206
0779 1400653076 33.1609
0780 1400655517 33.7208
0781 1400657958 33.7691
0782 1400660400 33.0695
0783 1400662841 33.4300
0784 1400665283 33.4748
0785 1400667724 32.9949
0786 1400670166 33.5944
0787 1400672607 40.3987
0788 1400675048 53.5232
0789 1400677490 35.4001
0790 1400679931 33.4082
0791 1400682373 33.0024
0792 1400684814 33.0994
0793 1400687255 33.8968
0794 1400689697 33.1230
0795 1400692138 39.6979
0796 1400694580 43.6819
0797 1400697021 36.4513
0798 1400699462 33.5865
0799 1400701904 33.4463
0800 1400704345 33.0620
0801 1400706787 33.4350
0802 1400709228 34.0237
0803 1400711669 33.1711
0804 1400714111 33.6737
0805 1400716552 36.5529
0806 1400718994 34.8384
0807 1400721435 33.2593
0808 1400723876 33.1865
0809 1400726318 33.4246
0810 1400728759 33.7561
0811 1400731201 33.4775
0812 1400733642 33.4408
0813 1400736083 32.9570
0814 1400738525 33.0862
0815 1400740966 33.1914
0816 1400743408 33.0505
0817 1400745849 33.6543
0818 1400748291 33.6098
0819 1400750732 32.6112
0820 1400753173 33.1915
0821 1400755615 33.0323
0822 1400758056 32.9830
0823 1400760498 32.9627
0824 1400762939 33.1821
0825 1400765380 32.7254
0826 1400767822 34.9236
0827 1400770263 35.1455
0828 1400772705 32.6757
0829 1400775146 32.5814
0830 1400777587 34.4836
0831 1400780029 33.1637
0832 1400782470 32.5614
0833 1400784912 32.6706
0834 1400787353 32.8121
0835 1400789794 32.5429
0836 1400792236 32.7029
0837 1400794677 32.3199
0838 1400797119 32.1735
0839 1400799560 33.5720
0840 1400802001 32.8596
0841 1400804443 32.1094
0842 1400806884 32.1911
0843 1400809326 32.0407
0844 1400811767 31.6372
0845 1400814208 32.1404
0846 1400816650 31.5298
0847 1400819091 31.5324
0848 1400821533 32.0485
0849 1400823974 33.2708
0850 1400826416 31.0270
0851 1400828857 31.6338
0852 1400831298 31.1371
0853 1400833740 30.7918
0854 1400836181 31.3669
0855 1400838623 31.8852
0856 1400841064 30.5309
0857 1400843505 30.6077
0858 1400845947 30.7291
0859 1400848388 30.5151
0860 1400850830 29.9275
0861 1400853271 30.5580
0862 1400855712 30.1297
0863 1400858154 29.6198
0864 1400860595 29.9598
0865 1400863037 29.5628
0866 1400865478 29.5543
0867 1400867919 29.3286
0868 1400870361 28.9882
0869 1400872802 29.2012
0870 1400875244 29.1282
0871 1400877685 29.2825
0872 1400880126 28.6233
0873 1400882568 28.6984
0874 1400885009 28.6587
0875 1400887451 33.1992
0876 1400889892 30.0104
0877 1400892333 28.0753
0878 1400894775 27.6640
0879 1400897216 27.9248
0880 1400899658 28.8371
0881 1400902099 27.0156
0882 1400904541 27.1865
0883 1400906982 26.9505
0884 1400909423 26.7423
0885 1400911865 26.7204
0886 1400914306 26.4921
0887 1400916748 26.3095
0888 1400919189 26.1446
0889 1400921630 26.3342
0890 1400924072 26.0653
0891 1400926513 26.1482
0892 1400928955 26.6337
0893 1400931396 25.3630
0894 1400933837 24.9726
0895 1400936279 24.8294
0896 1400938720 24.5568
0897 1400941162 24.5503
0898 1400943603 25.1147
0899 1400946044 24.5828
0900 1400948486 23.9960
0901 1400950927 24.6834
0902 1400953369 23.8858
0903 1400955810 23.2731
0904 1400958251 23.9849
0905 1400960693 24.3468
0906 1400963134 23.1045
0907 1400965576 24.0231
0908 1400968017 22.7057
0909 1400970458 22.5560
0910 1400972900 22.4263
0911 1400975341 22.5663
0912 1400977783 21.7881
0913 1400980224 21.5728
0914 1400982666 21.3402
0915 1400985107 21.2068
0916 1400987548 21.0793
0917 1400989990 20.7304
0918 1400992431 20.6274
0919 1400994873 20.2714
0920 1400997314 20.4786
0921 1400999755 19.9671
0922 1401002197 19.9281
0923 1401004638 19.8503
0924 1401007080 19.5282
0925 1401009521 19.3248
0926 1401011962 19.6982
0927 1401014404 18.8549
0928 1401016845 18.5326
0929 1401019287 18.8788
0930 1401021728 18.5399
0931 1401024169 18.0992
0932 1401026611 18.0256
0933 1401029052 17.9741
0934 1401031494 17.3164
0935 1401033935 17.2341
0936 1401036376 17.0324
0937 1401038818 16.9364
0938 1401041259 16.7184
0939 1401043701 16.7151
0940 1401046142 16.2717
0941 1401048583 16.1222
0942 1401051025 15.9382
0943 1401053466 15.7595
0944 1401055908 15.5472
0945 1401058349 15.3255
0946 1401060791 15.1686
0947 1401063232 15.1085
0948 1401065673 15.1860
0949 1401068115 14.8498
0950 1401070556 14.7322
0951 1401072998 14.5184
0952 1401075439 14.2623
0953 1401077880 13.8320
0954 1401080322 14.2015
0955 1401082763 14.2351
0956 1401085205 13.6496
0957 1401087646 13.8362
0958 1401090087 13.1919
0959 1401092529 12.9254
0960 1401094970 12.8429
0961 1401097412 13.1199
0962 1401099853 12.5421
0963 1401102294 12.4335
0964 1401104736 12.1794
0965 1401107177 11.9443
0966 1401109619 11.8277
0967 1401112060 11.6045
0968 1401114501 11.4324
0969 1401116943 11.2665
0970 1401119384 11.2769
0971 1401121826 11.0662
0972 1401124267 11.1504
0973 1401126708 11.0855
0974 1401129150 10.7167
0975 1401131591 10.5705
0976 1401134033 10.6903
0977 1401136474 10.1831
0978 1401138916 10.0132
0979 1401141357 10.1622
0980 1401143798 9.8863
0981 1401146240 9.7415
0982 1401148681 9.7422
0983 1401151123 9.5045
0984 1401153564 9.3077
0985 1401156005 9.2312
0986 1401158447 9.0404
0987 1401160888 8.9913
0988 1401163330 8.9683
0989 1401165771 8.8105
0990 1401168212 8.6449
0991 1401170654 8.5784
0992 1401173095 8.6148
0993 1401175537 8.4895
0994 1401177978 8.4313
0995 1401180419 8.3457
0996 1401182861 8.0577
0997 1401185302 8.0944
0998 1401187744 8.4344
0999 1401190185 8.0490
1000 1401192626 7.9533
1001 1401195068 8.1381
1002 1401197509 11.5485
1003 1401199951 8.8892
1004 1401202392 7.8928
1005 1401204833 7.5624
1006 1401207275 7.3014
1007 1401209716 7.2632
1008 1401212158 7.2576
1009 1401214599 7.4232
1010 1401217041 7.1692
1011 1401219482 7.0312
1012 1401221923 7.0337
1013 1401224365 7.0567
1014 1401226806 7.0089
1015 1401229248 6.9457
1016 1401231689 6.9156
1017 1401234130 6.7745
1018 1401236572 6.7410
1019 1401239013 6.8261
1020 1401241455 6.7688
1021 1401243896 6.7351
1022 1401246337 6.8139
1023 1401248779 6.9035
