# File: 20-05-31T224758.ast
# NOTEA     = None Attached.  RTLSDR Dongle Test
# NOTEB     = Spectral Integration
# OBSERVER  = Science Aficionado
# DEVICE    = rtlsdr=0
# DATADIR   = ../data/
# SITE      = None Attached.  RTLSDR Dongle Test
# CITY      = Green Bank
# REGION    = West Virginia
# COUNTRY   = US
# TELTYPE   = Bubble Wrap  Horn
# FRAME     = TOPO
# GAIN1     = 49.0
# GAIN2     = 11.0
# GAIN3     = 11.0
# GAIN4     = 0.0
# Count     = 10000
# CenterFreq= 1400000000.0
# Bandwidth = 2500000.0
# Duration  = 41.953567
# DeltaX    = 5859.375
# TSYS      = 200.0
# TRX       = 100.0
# TRMS      = 2.0
# TINT      = 1.0
# KPERC     = 100.0
# GAINFACT  = 1.0
# BUNIT     = Counts
# NCHAN     = 1024
# NSPEC     = 1
# NTIME     = 0
# NSAMPLES  = 0
# EPEAK     = 4.10875183718
# ERMS      = 0.995973393526
# EMJD      = 58568.808999981004 
# REFCHAN   = 512.0
# REFSAMPL  = 256.0
# NAVE      = 100
# NMEDIAN   = 1024
# Fft_rate  = 5000
# UTC       = 2020-05-31 22:47:58.841732
# SECONDS   =       0.0000000000 
# LST       = 10:08:10.040
# AZ        = 180.0
# EL        = 90.0
# TELLON    = -79:50:22.920
# TELLAT    = +38:25:59.160
# RA        = 10:05:45.480
# DEC       = +38:37:43.500
# GALLON    = 183:45:47.70
# GALLAT    = +53:42:33.20
# ALT_SUN   = +19:04:04.0
# AZ_SUN    = +283:31:53.3
# ETAA      = 0.8
# ETAB      = 0.99
# POLANGLE  = 0.0
# TELSIZEAM = 1.0
# TELSIZEBM = 1.0
# AST_VERS  = 05.01
0000 1398751220 6.7768
0001 1398753662 6.6475
0002 1398756103 6.7824
0003 1398758544 6.8194
0004 1398760986 6.7518
0005 1398763427 6.8573
0006 1398765869 6.7098
0007 1398768310 6.6365
0008 1398770751 6.6332
0009 1398773193 6.7126
0010 1398775634 6.9095
0011 1398778076 6.8300
0012 1398780517 6.8295
0013 1398782958 6.7913
0014 1398785400 6.8770
0015 1398787841 7.1159
0016 1398790283 6.9591
0017 1398792724 7.0652
0018 1398795166 7.4278
0019 1398797607 10.6652
0020 1398800048 8.1782
0021 1398802490 7.1673
0022 1398804931 7.2253
0023 1398807373 7.2074
0024 1398809814 7.2887
0025 1398812255 7.3837
0026 1398814697 7.4236
0027 1398817138 7.4248
0028 1398819580 7.5709
0029 1398822021 7.6874
0030 1398824462 7.7622
0031 1398826904 7.7520
0032 1398829345 7.8364
0033 1398831787 7.8914
0034 1398834228 8.2187
0035 1398836669 8.4360
0036 1398839111 8.0902
0037 1398841552 8.2024
0038 1398843994 8.4062
0039 1398846435 8.3834
0040 1398848876 8.5066
0041 1398851318 8.6589
0042 1398853759 8.7762
0043 1398856201 8.8893
0044 1398858642 9.0020
0045 1398861083 9.0044
0046 1398863525 9.1794
0047 1398865966 9.3657
0048 1398868408 9.4379
0049 1398870849 9.5435
0050 1398873291 9.7943
0051 1398875732 9.8199
0052 1398878173 9.9428
0053 1398880615 10.2120
0054 1398883056 10.2328
0055 1398885498 10.5484
0056 1398887939 10.9828
0057 1398890380 10.6732
0058 1398892822 10.6731
0059 1398895263 11.4922
0060 1398897705 11.6725
0061 1398900146 11.2807
0062 1398902587 11.2310
0063 1398905029 11.4135
0064 1398907470 11.7128
0065 1398909912 11.9307
0066 1398912353 12.1365
0067 1398914794 12.5181
0068 1398917236 12.3634
0069 1398919677 12.5484
0070 1398922119 12.4876
0071 1398924560 12.6940
0072 1398927001 13.1643
0073 1398929443 13.1379
0074 1398931884 13.2246
0075 1398934326 13.3439
0076 1398936767 13.5341
0077 1398939208 13.7001
0078 1398941650 13.9554
0079 1398944091 14.0162
0080 1398946533 14.2581
0081 1398948974 14.4438
0082 1398951416 14.4549
0083 1398953857 14.5868
0084 1398956298 15.2608
0085 1398958740 15.3397
0086 1398961181 15.1359
0087 1398963623 15.5422
0088 1398966064 15.7483
0089 1398968505 15.6811
0090 1398970947 16.0865
0091 1398973388 16.5337
0092 1398975830 16.3270
0093 1398978271 16.6191
0094 1398980712 16.8892
0095 1398983154 16.5441
0096 1398985595 17.1157
0097 1398988037 17.9639
0098 1398990478 17.3055
0099 1398992919 17.5932
0100 1398995361 17.5549
0101 1398997802 17.6712
0102 1399000244 17.9167
0103 1399002685 18.2191
0104 1399005126 18.3369
0105 1399007568 18.6509
0106 1399010009 19.2058
0107 1399012451 18.8016
0108 1399014892 19.0684
0109 1399017333 20.3519
0110 1399019775 19.6301
0111 1399022216 19.5089
0112 1399024658 19.8113
0113 1399027099 20.0922
0114 1399029541 19.9792
0115 1399031982 20.1949
0116 1399034423 20.4078
0117 1399036865 20.6714
0118 1399039306 21.1153
0119 1399041748 21.0851
0120 1399044189 21.1201
0121 1399046630 21.0244
0122 1399049072 21.4594
0123 1399051513 21.4267
0124 1399053955 21.7409
0125 1399056396 22.1148
0126 1399058837 22.0068
0127 1399061279 22.2443
0128 1399063720 22.8350
0129 1399066162 22.3923
0130 1399068603 22.6924
0131 1399071044 23.0372
0132 1399073486 22.8197
0133 1399075927 22.9745
0134 1399078369 23.9581
0135 1399080810 23.2102
0136 1399083251 23.4483
0137 1399085693 23.8191
0138 1399088134 24.2296
0139 1399090576 23.9132
0140 1399093017 24.8569
0141 1399095458 25.1647
0142 1399097900 24.1981
0143 1399100341 24.7189
0144 1399102783 24.7544
0145 1399105224 25.1633
0146 1399107666 24.9971
0147 1399110107 24.9466
0148 1399112548 24.8547
0149 1399114990 24.9658
0150 1399117431 25.4824
0151 1399119873 25.8296
0152 1399122314 25.8702
0153 1399124755 25.7739
0154 1399127197 25.8584
0155 1399129638 26.6163
0156 1399132080 26.3142
0157 1399134521 28.5403
0158 1399136962 29.1189
0159 1399139404 28.3049
0160 1399141845 26.7047
0161 1399144287 26.4679
0162 1399146728 26.8334
0163 1399149169 27.1476
0164 1399151611 27.1424
0165 1399154052 27.5443
0166 1399156494 27.3292
0167 1399158935 27.2932
0168 1399161376 27.3565
0169 1399163818 27.4674
0170 1399166259 27.6220
0171 1399168701 28.2891
0172 1399171142 27.8326
0173 1399173583 27.8029
0174 1399176025 28.1166
0175 1399178466 28.4532
0176 1399180908 27.8678
0177 1399183349 28.3470
0178 1399185791 28.2322
0179 1399188232 28.6998
0180 1399190673 29.9183
0181 1399193115 29.2038
0182 1399195556 28.3292
0183 1399197998 29.4656
0184 1399200439 30.9061
0185 1399202880 28.9240
0186 1399205322 29.2347
0187 1399207763 30.1379
0188 1399210205 29.1217
0189 1399212646 29.1258
0190 1399215087 29.2439
0191 1399217529 29.0563
0192 1399219970 29.3863
0193 1399222412 29.9076
0194 1399224853 29.4034
0195 1399227294 29.2844
0196 1399229736 29.5250
0197 1399232177 29.5274
0198 1399234619 29.5103
0199 1399237060 30.2192
0200 1399239501 29.9990
0201 1399241943 29.7394
0202 1399244384 31.0087
0203 1399246826 30.5875
0204 1399249267 29.8838
0205 1399251708 29.9197
0206 1399254150 30.1053
0207 1399256591 29.7542
0208 1399259033 30.6214
0209 1399261474 30.5240
0210 1399263916 29.7099
0211 1399266357 30.2160
0212 1399268798 30.6527
0213 1399271240 30.3754
0214 1399273681 30.8970
0215 1399276123 30.9242
0216 1399278564 30.0660
0217 1399281005 30.4903
0218 1399283447 30.2165
0219 1399285888 30.5981
0220 1399288330 31.4619
0221 1399290771 30.3479
0222 1399293212 30.2765
0223 1399295654 30.3688
0224 1399298095 30.5574
0225 1399300537 30.3964
0226 1399302978 30.5531
0227 1399305419 31.2338
0228 1399307861 30.9301
0229 1399310302 30.5786
0230 1399312744 32.1363
0231 1399315185 30.8461
0232 1399317626 30.3805
0233 1399320068 31.4282
0234 1399322509 31.3439
0235 1399324951 30.3209
0236 1399327392 30.9361
0237 1399329833 36.3026
0238 1399332275 32.7377
0239 1399334716 30.7625
0240 1399337158 31.2045
0241 1399339599 31.1339
0242 1399342041 31.0269
0243 1399344482 30.7854
0244 1399346923 30.0680
0245 1399349365 30.3997
0246 1399351806 30.8421
0247 1399354248 30.1755
0248 1399356689 30.5956
0249 1399359130 30.5373
0250 1399361572 30.6141
0251 1399364013 31.3351
0252 1399366455 31.3528
0253 1399368896 31.7667
0254 1399371337 30.8398
0255 1399373779 31.5280
0256 1399376220 30.8407
0257 1399378662 30.4521
0258 1399381103 31.3858
0259 1399383544 31.0989
0260 1399385986 30.4350
0261 1399388427 30.5837
0262 1399390869 30.8047
0263 1399393310 30.6860
0264 1399395751 30.8898
0265 1399398193 30.3936
0266 1399400634 30.5789
0267 1399403076 30.4046
0268 1399405517 30.6407
0269 1399407958 30.3195
0270 1399410400 30.5604
0271 1399412841 30.5771
0272 1399415283 30.3676
0273 1399417724 30.5241
0274 1399420166 30.1593
0275 1399422607 30.1002
0276 1399425048 30.2602
0277 1399427490 31.1026
0278 1399429931 30.1556
0279 1399432373 30.4569
0280 1399434814 31.2562
0281 1399437255 30.6414
0282 1399439697 30.4692
0283 1399442138 31.8577
0284 1399444580 30.6002
0285 1399447021 30.1611
0286 1399449462 30.8840
0287 1399451904 31.0587
0288 1399454345 30.1207
0289 1399456787 30.1590
0290 1399459228 30.1861
0291 1399461669 29.8124
0292 1399464111 30.0729
0293 1399466552 30.1219
0294 1399468994 30.0166
0295 1399471435 30.4998
0296 1399473876 31.0485
0297 1399476318 30.2453
0298 1399478759 30.1757
0299 1399481201 30.0043
0300 1399483642 30.1261
0301 1399486083 30.5583
0302 1399488525 30.8280
0303 1399490966 30.1740
0304 1399493408 30.4363
0305 1399495849 30.6732
0306 1399498291 30.8261
0307 1399500732 31.3447
0308 1399503173 31.2491
0309 1399505615 30.4952
0310 1399508056 30.1478
0311 1399510498 30.3889
0312 1399512939 30.3179
0313 1399515380 30.2445
0314 1399517822 30.5204
0315 1399520263 30.0362
0316 1399522705 30.1494
0317 1399525146 30.5850
0318 1399527587 30.6007
0319 1399530029 30.3679
0320 1399532470 30.8841
0321 1399534912 30.3541
0322 1399537353 30.3422
0323 1399539794 30.8491
0324 1399542236 30.4783
0325 1399544677 30.3463
0326 1399547119 30.6105
0327 1399549560 30.7807
0328 1399552001 30.1385
0329 1399554443 30.8145
0330 1399556884 31.7950
0331 1399559326 30.3920
0332 1399561767 31.2189
0333 1399564208 32.5065
0334 1399566650 30.3218
0335 1399569091 30.6401
0336 1399571533 31.0481
0337 1399573974 30.1598
0338 1399576416 30.6265
0339 1399578857 30.5189
0340 1399581298 30.8032
0341 1399583740 30.5892
0342 1399586181 31.5085
0343 1399588623 31.3924
0344 1399591064 30.8372
0345 1399593505 31.5067
0346 1399595947 30.7345
0347 1399598388 30.5910
0348 1399600830 30.5874
0349 1399603271 31.0227
0350 1399605712 31.3288
0351 1399608154 30.8542
0352 1399610595 30.8448
0353 1399613037 30.7273
0354 1399615478 31.2187
0355 1399617919 31.4809
0356 1399620361 31.8337
0357 1399622802 32.1430
0358 1399625244 33.4430
0359 1399627685 31.2866
0360 1399630126 31.2824
0361 1399632568 31.6461
0362 1399635009 30.9754
0363 1399637451 31.6873
0364 1399639892 31.4066
0365 1399642333 31.5217
0366 1399644775 31.3895
0367 1399647216 31.8486
0368 1399649658 31.4762
0369 1399652099 31.8351
0370 1399654541 31.9916
0371 1399656982 31.8568
0372 1399659423 31.7561
0373 1399661865 32.0680
0374 1399664306 31.8062
0375 1399666748 31.7416
0376 1399669189 32.4945
0377 1399671630 32.3850
0378 1399674072 32.1278
0379 1399676513 36.4373
0380 1399678955 34.9911
0381 1399681396 32.6208
0382 1399683837 34.4248
0383 1399686279 34.5984
0384 1399688720 32.2586
0385 1399691162 32.3174
0386 1399693603 32.8389
0387 1399696044 32.4209
0388 1399698486 32.4836
0389 1399700927 33.0821
0390 1399703369 32.4760
0391 1399705810 32.4856
0392 1399708251 32.6590
0393 1399710693 32.7064
0394 1399713134 33.0259
0395 1399715576 33.7834
0396 1399718017 33.3534
0397 1399720458 33.9790
0398 1399722900 33.8926
0399 1399725341 33.2158
0400 1399727783 33.5892
0401 1399730224 33.6212
0402 1399732666 33.0591
0403 1399735107 33.6062
0404 1399737548 34.0021
0405 1399739990 33.0941
0406 1399742431 33.7839
0407 1399744873 35.3162
0408 1399747314 35.4328
0409 1399749755 38.6221
0410 1399752197 36.8675
0411 1399754638 34.0373
0412 1399757080 34.2560
0413 1399759521 34.6153
0414 1399761962 33.7558
0415 1399764404 33.8327
0416 1399766845 33.8444
0417 1399769287 34.4683
0418 1399771728 34.0587
0419 1399774169 34.1443
0420 1399776611 35.0961
0421 1399779052 34.6087
0422 1399781494 34.1768
0423 1399783935 34.3447
0424 1399786376 35.1055
0425 1399788818 35.2982
0426 1399791259 37.2792
0427 1399793701 41.0239
0428 1399796142 35.3706
0429 1399798583 35.5443
0430 1399801025 35.3584
0431 1399803466 35.4130
0432 1399805908 36.3418
0433 1399808349 36.3493
0434 1399810791 35.5670
0435 1399813232 35.7374
0436 1399815673 35.2995
0437 1399818115 35.2809
0438 1399820556 36.0802
0439 1399822998 36.1730
0440 1399825439 35.6185
0441 1399827880 35.8410
0442 1399830322 36.3491
0443 1399832763 35.5021
0444 1399835205 35.8357
0445 1399837646 36.0479
0446 1399840087 36.1074
0447 1399842529 36.8794
0448 1399844970 37.5212
0449 1399847412 36.8541
0450 1399849853 36.2638
0451 1399852294 36.1633
0452 1399854736 36.2504
0453 1399857177 36.8328
0454 1399859619 37.3347
0455 1399862060 36.0933
0456 1399864501 36.5452
0457 1399866943 39.4741
0458 1399869384 37.5625
0459 1399871826 36.9095
0460 1399874267 37.0521
0461 1399876708 36.8033
0462 1399879150 36.5099
0463 1399881591 36.9724
0464 1399884033 37.6442
0465 1399886474 37.7706
0466 1399888916 37.9914
0467 1399891357 37.1827
0468 1399893798 37.0995
0469 1399896240 70.2901
0470 1399898681 79.5346
0471 1399901123 38.5023
0472 1399903564 37.5396
0473 1399906005 37.8304
0474 1399908447 37.5965
0475 1399910888 37.3667
0476 1399913330 38.9833
0477 1399915771 38.9625
0478 1399918212 38.1024
0479 1399920654 38.1408
0480 1399923095 38.0601
0481 1399925537 37.8969
0482 1399927978 38.9052
0483 1399930419 38.5006
0484 1399932861 38.9911
0485 1399935302 39.0770
0486 1399937744 38.5015
0487 1399940185 38.3078
0488 1399942626 38.6627
0489 1399945068 39.0290
0490 1399947509 39.1122
0491 1399949951 39.6690
0492 1399952392 39.1351
0493 1399954833 38.9746
0494 1399957275 40.0565
0495 1399959716 39.7131
0496 1399962158 38.6574
0497 1399964599 39.0245
0498 1399967041 39.6282
0499 1399969482 39.3678
0500 1399971923 40.1854
0501 1399974365 43.9554
0502 1399976806 49.2338
0503 1399979248 63.1909
0504 1399981689 45.6009
0505 1399984130 42.0947
0506 1399986572 66.2117
0507 1399989013 90.1444
0508 1399991455 65.7505
0509 1399993896 59.2847
0510 1399996337 424.9533
0511 1399998779 656.4500
0512 1400001220 72.4995
0513 1400003662 47.6898
0514 1400006103 45.4146
0515 1400008544 42.8108
0516 1400010986 43.3635
0517 1400013427 46.6876
0518 1400015869 47.1778
0519 1400018310 40.3994
0520 1400020751 43.8359
0521 1400023193 46.3119
0522 1400025634 40.9058
0523 1400028076 40.5734
0524 1400030517 40.2129
0525 1400032958 40.3373
0526 1400035400 39.7886
0527 1400037841 40.3204
0528 1400040283 40.6820
0529 1400042724 39.6977
0530 1400045166 39.4912
0531 1400047607 41.4233
0532 1400050048 39.9789
0533 1400052490 38.3273
0534 1400054931 39.0673
0535 1400057373 38.8441
0536 1400059814 38.8932
0537 1400062255 38.5146
0538 1400064697 37.9723
0539 1400067138 37.9120
0540 1400069580 38.0914
0541 1400072021 38.7237
0542 1400074462 38.2209
0543 1400076904 37.9434
0544 1400079345 38.1750
0545 1400081787 37.8152
0546 1400084228 38.8646
0547 1400086669 40.9621
0548 1400089111 38.1935
0549 1400091552 37.5698
0550 1400093994 38.0607
0551 1400096435 37.8340
0552 1400098876 37.3769
0553 1400101318 37.4822
0554 1400103759 37.9386
0555 1400106201 37.9251
0556 1400108642 43.5655
0557 1400111083 41.3070
0558 1400113525 37.5550
0559 1400115966 37.5205
0560 1400118408 37.7426
0561 1400120849 37.2994
0562 1400123291 37.2141
0563 1400125732 37.2996
0564 1400128173 37.0085
0565 1400130615 36.8192
0566 1400133056 36.9172
0567 1400135498 36.8347
0568 1400137939 37.0774
0569 1400140380 36.2958
0570 1400142822 36.2966
0571 1400145263 36.5431
0572 1400147705 37.5051
0573 1400150146 36.8462
0574 1400152587 36.3335
0575 1400155029 37.4402
0576 1400157470 36.8566
0577 1400159912 36.4503
0578 1400162353 38.2150
0579 1400164794 36.8439
0580 1400167236 36.6630
0581 1400169677 37.0708
0582 1400172119 37.0365
0583 1400174560 36.3223
0584 1400177001 35.9025
0585 1400179443 35.8814
0586 1400181884 35.8333
0587 1400184326 35.5126
0588 1400186767 38.1951
0589 1400189208 36.5892
0590 1400191650 36.1997
0591 1400194091 36.1630
0592 1400196533 35.9294
0593 1400198974 35.7416
0594 1400201416 35.7766
0595 1400203857 35.5652
0596 1400206298 35.6323
0597 1400208740 36.2039
0598 1400211181 35.4852
0599 1400213623 35.3094
0600 1400216064 36.1020
0601 1400218505 35.3319
0602 1400220947 35.1716
0603 1400223388 35.4978
0604 1400225830 34.8962
0605 1400228271 34.6635
0606 1400230712 34.9746
0607 1400233154 34.7953
0608 1400235595 34.6002
0609 1400238037 34.5973
0610 1400240478 34.7053
0611 1400242919 34.1325
0612 1400245361 34.3079
0613 1400247802 34.3215
0614 1400250244 34.3549
0615 1400252685 34.4605
0616 1400255126 34.7952
0617 1400257568 35.9109
0618 1400260009 40.5167
0619 1400262451 34.5176
0620 1400264892 34.1371
0621 1400267333 33.9041
0622 1400269775 33.9114
0623 1400272216 33.6991
0624 1400274658 33.9840
0625 1400277099 34.7888
0626 1400279541 34.1235
0627 1400281982 34.2387
0628 1400284423 35.5493
0629 1400286865 34.1630
0630 1400289306 33.7566
0631 1400291748 35.5508
0632 1400294189 34.3749
0633 1400296630 33.4730
0634 1400299072 33.6306
0635 1400301513 34.0177
0636 1400303955 36.8572
0637 1400306396 33.8224
0638 1400308837 33.2017
0639 1400311279 32.8726
0640 1400313720 33.1244
0641 1400316162 33.0380
0642 1400318603 33.0707
0643 1400321044 33.4370
0644 1400323486 33.6788
0645 1400325927 32.8816
0646 1400328369 32.9910
0647 1400330810 33.1416
0648 1400333251 32.9021
0649 1400335693 33.0774
0650 1400338134 33.0156
0651 1400340576 32.6324
0652 1400343017 33.6767
0653 1400345458 34.2873
0654 1400347900 32.4059
0655 1400350341 32.4164
0656 1400352783 33.1431
0657 1400355224 32.6264
0658 1400357666 32.7005
0659 1400360107 32.4331
0660 1400362548 32.3093
0661 1400364990 31.8480
0662 1400367431 32.0911
0663 1400369873 32.2728
0664 1400372314 31.9454
0665 1400374755 32.0624
0666 1400377197 32.6504
0667 1400379638 33.6187
0668 1400382080 31.7265
0669 1400384521 31.8189
0670 1400386962 33.0201
0671 1400389404 32.9064
0672 1400391845 32.6699
0673 1400394287 31.8211
0674 1400396728 32.2084
0675 1400399169 32.5748
0676 1400401611 32.2912
0677 1400404052 32.3089
0678 1400406494 32.3729
0679 1400408935 31.8746
0680 1400411376 31.9307
0681 1400413818 34.3700
0682 1400416259 32.5237
0683 1400418701 31.6702
0684 1400421142 32.1112
0685 1400423583 31.7199
0686 1400426025 31.7187
0687 1400428466 31.8042
0688 1400430908 31.5409
0689 1400433349 31.3376
0690 1400435791 31.5093
0691 1400438232 31.6280
0692 1400440673 31.6352
0693 1400443115 32.0342
0694 1400445556 31.8272
0695 1400447998 31.5187
0696 1400450439 31.5725
0697 1400452880 31.1044
0698 1400455322 31.5050
0699 1400457763 31.6524
0700 1400460205 31.3913
0701 1400462646 31.3845
0702 1400465087 32.8804
0703 1400467529 32.9130
0704 1400469970 31.9036
0705 1400472412 32.2137
0706 1400474853 33.5830
0707 1400477294 31.7186
0708 1400479736 31.5016
0709 1400482177 32.0565
0710 1400484619 31.5287
0711 1400487060 31.7253
0712 1400489501 31.9641
0713 1400491943 31.5215
0714 1400494384 31.8251
0715 1400496826 33.1627
0716 1400499267 33.6489
0717 1400501708 31.9360
0718 1400504150 32.0531
0719 1400506591 31.7702
0720 1400509033 31.7131
0721 1400511474 31.8851
0722 1400513916 31.6671
0723 1400516357 31.6648
0724 1400518798 32.1373
0725 1400521240 32.1540
0726 1400523681 32.0180
0727 1400526123 32.9010
0728 1400528564 32.3403
0729 1400531005 31.6720
0730 1400533447 33.0557
0731 1400535888 33.7009
0732 1400538330 32.3629
0733 1400540771 32.3995
0734 1400543212 32.8787
0735 1400545654 31.8401
0736 1400548095 31.8607
0737 1400550537 32.3693
0738 1400552978 31.9278
0739 1400555419 32.4151
0740 1400557861 33.1856
0741 1400560302 32.2983
0742 1400562744 31.8778
0743 1400565185 32.3924
0744 1400567626 32.1151
0745 1400570068 32.5874
0746 1400572509 32.4938
0747 1400574951 32.1065
0748 1400577392 32.6509
0749 1400579833 32.2077
0750 1400582275 32.5142
0751 1400584716 32.2889
0752 1400587158 34.2234
0753 1400589599 33.1737
0754 1400592041 32.6770
0755 1400594482 35.1410
0756 1400596923 35.9811
0757 1400599365 32.8134
0758 1400601806 32.6060
0759 1400604248 32.5231
0760 1400606689 32.5000
0761 1400609130 33.0023
0762 1400611572 33.0074
0763 1400614013 32.7998
0764 1400616455 33.1158
0765 1400618896 33.1886
0766 1400621337 33.0171
0767 1400623779 33.0870
0768 1400626220 33.2900
0769 1400628662 32.6881
0770 1400631103 32.9875
0771 1400633544 33.0220
0772 1400635986 32.5360
0773 1400638427 33.0277
0774 1400640869 34.1368
0775 1400643310 33.5478
0776 1400645751 33.3608
0777 1400648193 34.2462
0778 1400650634 33.2583
0779 1400653076 32.7648
0780 1400655517 33.4531
0781 1400657958 33.6384
0782 1400660400 33.1255
0783 1400662841 33.5258
0784 1400665283 33.5168
0785 1400667724 32.7300
0786 1400670166 34.1226
0787 1400672607 40.6052
0788 1400675048 51.3975
0789 1400677490 34.9980
0790 1400679931 33.1837
0791 1400682373 32.8265
0792 1400684814 33.0136
0793 1400687255 33.6689
0794 1400689697 33.1996
0795 1400692138 38.8848
0796 1400694580 42.9109
0797 1400697021 35.9212
0798 1400699462 33.2114
0799 1400701904 33.0129
0800 1400704345 33.2122
0801 1400706787 33.3851
0802 1400709228 33.6571
0803 1400711669 32.8654
0804 1400714111 33.3064
0805 1400716552 35.3057
0806 1400718994 34.0483
0807 1400721435 32.7654
0808 1400723876 33.1866
0809 1400726318 32.7927
0810 1400728759 33.0204
0811 1400731201 32.8622
0812 1400733642 32.7546
0813 1400736083 32.2005
0814 1400738525 32.6973
0815 1400740966 32.7045
0816 1400743408 32.3943
0817 1400745849 33.1448
0818 1400748291 33.4172
0819 1400750732 32.4117
0820 1400753173 32.6817
0821 1400755615 32.8468
0822 1400758056 32.0855
0823 1400760498 32.1031
0824 1400762939 32.2919
0825 1400765380 32.1074
0826 1400767822 34.4601
0827 1400770263 34.2178
0828 1400772705 32.0449
0829 1400775146 32.0861
0830 1400777587 33.8577
0831 1400780029 32.3132
0832 1400782470 31.7813
0833 1400784912 32.3630
0834 1400787353 32.4644
0835 1400789794 31.9748
0836 1400792236 31.7043
0837 1400794677 31.4327
0838 1400797119 31.3767
0839 1400799560 31.4896
0840 1400802001 31.8510
0841 1400804443 31.5115
0842 1400806884 31.2934
0843 1400809326 31.1106
0844 1400811767 30.7565
0845 1400814208 31.1120
0846 1400816650 30.9235
0847 1400819091 30.8167
0848 1400821533 31.9519
0849 1400823974 32.8696
0850 1400826416 30.5331
0851 1400828857 30.8980
0852 1400831298 30.9586
0853 1400833740 30.1761
0854 1400836181 30.1043
0855 1400838623 31.1297
0856 1400841064 30.1377
0857 1400843505 29.9600
0858 1400845947 29.8071
0859 1400848388 29.5973
0860 1400850830 29.4723
0861 1400853271 29.4125
0862 1400855712 29.3025
0863 1400858154 29.0648
0864 1400860595 29.0144
0865 1400863037 28.7032
0866 1400865478 28.7651
0867 1400867919 28.8102
0868 1400870361 28.7589
0869 1400872802 28.5245
0870 1400875244 28.7259
0871 1400877685 28.6436
0872 1400880126 28.1295
0873 1400882568 28.3663
0874 1400885009 28.4334
0875 1400887451 32.0783
0876 1400889892 30.0602
0877 1400892333 28.2988
0878 1400894775 27.5412
0879 1400897216 27.2337
0880 1400899658 28.1643
0881 1400902099 27.0884
0882 1400904541 27.0919
0883 1400906982 26.6911
0884 1400909423 26.3451
0885 1400911865 26.3485
0886 1400914306 26.4995
0887 1400916748 26.4876
0888 1400919189 26.1264
0889 1400921630 26.1207
0890 1400924072 25.9902
0891 1400926513 26.0984
0892 1400928955 26.4377
0893 1400931396 25.2410
0894 1400933837 25.1363
0895 1400936279 24.9132
0896 1400938720 24.6047
0897 1400941162 24.5386
0898 1400943603 25.2452
0899 1400946044 24.6042
0900 1400948486 24.3230
0901 1400950927 24.5875
0902 1400953369 23.9114
0903 1400955810 23.4154
0904 1400958251 24.0080
0905 1400960693 24.3363
0906 1400963134 23.4203
0907 1400965576 23.9298
0908 1400968017 23.1285
0909 1400970458 22.7429
0910 1400972900 22.4726
0911 1400975341 22.5343
0912 1400977783 22.0896
0913 1400980224 21.9691
0914 1400982666 21.7962
0915 1400985107 21.4694
0916 1400987548 21.1986
0917 1400989990 21.0458
0918 1400992431 21.0406
0919 1400994873 20.6380
0920 1400997314 20.5084
0921 1400999755 20.3010
0922 1401002197 19.8124
0923 1401004638 19.7959
0924 1401007080 19.7459
0925 1401009521 19.6193
0926 1401011962 19.7800
0927 1401014404 19.1904
0928 1401016845 18.8849
0929 1401019287 19.2641
0930 1401021728 18.8858
0931 1401024169 18.2619
0932 1401026611 18.3235
0933 1401029052 18.2609
0934 1401031494 17.7384
0935 1401033935 17.5797
0936 1401036376 17.3715
0937 1401038818 17.0507
0938 1401041259 16.9306
0939 1401043701 17.0669
0940 1401046142 16.5524
0941 1401048583 16.4812
0942 1401051025 16.2919
0943 1401053466 15.9970
0944 1401055908 15.9557
0945 1401058349 15.6165
0946 1401060791 15.4079
0947 1401063232 15.1957
0948 1401065673 15.3252
0949 1401068115 14.9270
0950 1401070556 14.8732
0951 1401072998 14.7450
0952 1401075439 14.4610
0953 1401077880 14.0593
0954 1401080322 14.4168
0955 1401082763 14.4796
0956 1401085205 13.8553
0957 1401087646 13.6318
0958 1401090087 13.2678
0959 1401092529 13.1095
0960 1401094970 12.8751
0961 1401097412 13.2826
0962 1401099853 12.6572
0963 1401102294 12.4325
0964 1401104736 12.3128
0965 1401107177 12.1550
0966 1401109619 11.9916
0967 1401112060 11.7763
0968 1401114501 11.4698
0969 1401116943 11.4222
0970 1401119384 11.2786
0971 1401121826 11.1265
0972 1401124267 11.1840
0973 1401126708 11.1555
0974 1401129150 10.8330
0975 1401131591 10.7067
0976 1401134033 10.7898
0977 1401136474 10.3483
0978 1401138916 10.0633
0979 1401141357 10.1782
0980 1401143798 9.8267
0981 1401146240 9.7580
0982 1401148681 9.7263
0983 1401151123 9.4216
0984 1401153564 9.2813
0985 1401156005 9.2024
0986 1401158447 9.1571
0987 1401160888 9.0411
0988 1401163330 8.9138
0989 1401165771 8.7500
0990 1401168212 8.6338
0991 1401170654 8.5226
0992 1401173095 8.6155
0993 1401175537 8.3801
0994 1401177978 8.3743
0995 1401180419 8.3226
0996 1401182861 8.0535
0997 1401185302 8.0906
0998 1401187744 8.3024
0999 1401190185 8.0155
1000 1401192626 7.8790
1001 1401195068 8.0660
1002 1401197509 11.3642
1003 1401199951 8.9053
1004 1401202392 7.8011
1005 1401204833 7.5118
1006 1401207275 7.3206
1007 1401209716 7.2240
1008 1401212158 7.1629
1009 1401214599 7.2726
1010 1401217041 7.0985
1011 1401219482 7.0086
1012 1401221923 6.9825
1013 1401224365 6.9348
1014 1401226806 6.9015
1015 1401229248 6.8518
1016 1401231689 6.7275
1017 1401234130 6.6573
1018 1401236572 6.7035
1019 1401239013 6.7506
1020 1401241455 6.6930
1021 1401243896 6.7073
1022 1401246337 6.7386
1023 1401248779 6.7589
