# File: 20-05-31T225210.ast
# NOTEA     = None Attached.  RTLSDR Dongle Test
# NOTEB     = Spectral Integration
# OBSERVER  = Science Aficionado
# DEVICE    = rtlsdr=0
# DATADIR   = ../data/
# SITE      = None Attached.  RTLSDR Dongle Test
# CITY      = Green Bank
# REGION    = West Virginia
# COUNTRY   = US
# TELTYPE   = Bubble Wrap  Horn
# FRAME     = TOPO
# GAIN1     = 49.0
# GAIN2     = 11.0
# GAIN3     = 11.0
# GAIN4     = 0.0
# Count     = 10000
# CenterFreq= 1400000000.0
# Bandwidth = 2500000.0
# Duration  = 41.943622
# DeltaX    = 5859.375
# TSYS      = 200.0
# TRX       = 100.0
# TRMS      = 2.0
# TINT      = 1.0
# KPERC     = 100.0
# GAINFACT  = 1.0
# BUNIT     = Counts
# NCHAN     = 1024
# NSPEC     = 1
# NTIME     = 0
# NSAMPLES  = 0
# EPEAK     = 4.10875183718
# ERMS      = 0.995973393526
# EMJD      = 58568.808999981004 
# REFCHAN   = 512.0
# REFSAMPL  = 256.0
# NAVE      = 100
# NMEDIAN   = 1024
# Fft_rate  = 5000
# UTC       = 2020-05-31 22:52:10.558337
# SECONDS   =       0.0000000000 
# LST       = 10:12:22.440
# AZ        = 180.0
# EL        = 90.0
# TELLON    = -79:50:22.920
# TELLAT    = +38:25:59.160
# RA        = 10:09:58.560
# DEC       = +38:37:50.400
# GALLON    = 183:36:25.10
# GALLAT    = +54:31:40.40
# ALT_SUN   = +18:16:20.8
# AZ_SUN    = +284:07:03.1
# ETAA      = 0.8
# ETAB      = 0.99
# POLANGLE  = 0.0
# TELSIZEAM = 1.0
# TELSIZEBM = 1.0
# AST_VERS  = 05.01
0000 1398751220 6.0456
0001 1398753662 5.9968
0002 1398756103 6.0141
0003 1398758544 6.1413
0004 1398760986 6.1037
0005 1398763427 6.2343
0006 1398765869 5.9860
0007 1398768310 5.9944
0008 1398770751 5.9444
0009 1398773193 6.0349
0010 1398775634 6.2308
0011 1398778076 6.2119
0012 1398780517 6.1254
0013 1398782958 6.1127
0014 1398785400 6.2104
0015 1398787841 6.4556
0016 1398790283 6.3327
0017 1398792724 6.3524
0018 1398795166 6.6602
0019 1398797607 9.5739
0020 1398800048 7.5411
0021 1398802490 6.5397
0022 1398804931 6.5492
0023 1398807373 6.5122
0024 1398809814 6.5671
0025 1398812255 6.6633
0026 1398814697 6.7605
0027 1398817138 6.7616
0028 1398819580 6.8242
0029 1398822021 7.0136
0030 1398824462 6.8954
0031 1398826904 7.0260
0032 1398829345 7.0726
0033 1398831787 7.1544
0034 1398834228 7.3632
0035 1398836669 7.7332
0036 1398839111 7.4418
0037 1398841552 7.4814
0038 1398843994 7.6252
0039 1398846435 7.6457
0040 1398848876 7.7700
0041 1398851318 7.9608
0042 1398853759 7.8866
0043 1398856201 8.0120
0044 1398858642 8.2231
0045 1398861083 8.1801
0046 1398863525 8.2787
0047 1398865966 8.6008
0048 1398868408 8.6708
0049 1398870849 8.6261
0050 1398873291 8.8574
0051 1398875732 8.9089
0052 1398878173 9.0217
0053 1398880615 9.2327
0054 1398883056 9.1877
0055 1398885498 9.3206
0056 1398887939 9.8684
0057 1398890380 9.6157
0058 1398892822 9.7012
0059 1398895263 10.5627
0060 1398897705 10.6690
0061 1398900146 10.1445
0062 1398902587 10.2084
0063 1398905029 10.3252
0064 1398907470 10.5760
0065 1398909912 10.7137
0066 1398912353 10.9908
0067 1398914794 11.6106
0068 1398917236 11.1357
0069 1398919677 11.3260
0070 1398922119 11.3949
0071 1398924560 11.4771
0072 1398927001 11.9592
0073 1398929443 11.8960
0074 1398931884 11.9069
0075 1398934326 12.1465
0076 1398936767 12.0892
0077 1398939208 12.3572
0078 1398941650 12.6229
0079 1398944091 12.6416
0080 1398946533 12.8803
0081 1398948974 13.0797
0082 1398951416 13.1007
0083 1398953857 13.2410
0084 1398956298 13.7829
0085 1398958740 13.6986
0086 1398961181 13.5024
0087 1398963623 13.8931
0088 1398966064 14.2364
0089 1398968505 14.1678
0090 1398970947 14.5657
0091 1398973388 14.8309
0092 1398975830 14.7273
0093 1398978271 15.0680
0094 1398980712 15.1821
0095 1398983154 14.9724
0096 1398985595 15.2434
0097 1398988037 15.8605
0098 1398990478 15.6388
0099 1398992919 15.6455
0100 1398995361 15.6734
0101 1398997802 15.8606
0102 1399000244 16.1384
0103 1399002685 16.3949
0104 1399005126 16.6238
0105 1399007568 16.7666
0106 1399010009 17.1898
0107 1399012451 16.9179
0108 1399014892 17.1279
0109 1399017333 18.4931
0110 1399019775 17.8245
0111 1399022216 17.5647
0112 1399024658 18.3034
0113 1399027099 18.0633
0114 1399029541 18.0706
0115 1399031982 18.1926
0116 1399034423 18.2894
0117 1399036865 18.4155
0118 1399039306 18.9880
0119 1399041748 18.8430
0120 1399044189 18.8164
0121 1399046630 19.2451
0122 1399049072 19.2536
0123 1399051513 19.2956
0124 1399053955 19.5132
0125 1399056396 20.0273
0126 1399058837 19.5920
0127 1399061279 20.1569
0128 1399063720 20.5837
0129 1399066162 19.9752
0130 1399068603 20.5917
0131 1399071044 20.9129
0132 1399073486 20.6898
0133 1399075927 20.9737
0134 1399078369 21.6341
0135 1399080810 21.0330
0136 1399083251 21.1933
0137 1399085693 21.8486
0138 1399088134 22.0055
0139 1399090576 21.6099
0140 1399093017 22.4624
0141 1399095458 22.5379
0142 1399097900 22.2067
0143 1399100341 22.4617
0144 1399102783 22.3634
0145 1399105224 22.2341
0146 1399107666 22.4402
0147 1399110107 22.8600
0148 1399112548 22.6209
0149 1399114990 22.7218
0150 1399117431 23.3245
0151 1399119873 23.1856
0152 1399122314 23.3845
0153 1399124755 23.5813
0154 1399127197 23.1139
0155 1399129638 23.8681
0156 1399132080 24.0005
0157 1399134521 25.4212
0158 1399136962 25.8597
0159 1399139404 25.5591
0160 1399141845 24.2763
0161 1399144287 23.9246
0162 1399146728 24.3285
0163 1399149169 24.3764
0164 1399151611 24.7497
0165 1399154052 24.8647
0166 1399156494 24.3785
0167 1399158935 24.1176
0168 1399161376 24.8573
0169 1399163818 24.5518
0170 1399166259 24.6885
0171 1399168701 25.4310
0172 1399171142 25.0537
0173 1399173583 25.4683
0174 1399176025 25.3566
0175 1399178466 25.5872
0176 1399180908 25.1865
0177 1399183349 25.9594
0178 1399185791 25.7461
0179 1399188232 25.8634
0180 1399190673 27.2136
0181 1399193115 26.2738
0182 1399195556 25.9429
0183 1399197998 26.6400
0184 1399200439 27.5968
0185 1399202880 26.0337
0186 1399205322 26.3436
0187 1399207763 27.2854
0188 1399210205 26.4546
0189 1399212646 26.4127
0190 1399215087 26.5599
0191 1399217529 26.1988
0192 1399219970 26.4698
0193 1399222412 27.1154
0194 1399224853 26.4527
0195 1399227294 26.3281
0196 1399229736 26.5249
0197 1399232177 26.7584
0198 1399234619 26.6669
0199 1399237060 27.0215
0200 1399239501 27.1962
0201 1399241943 26.9142
0202 1399244384 28.1200
0203 1399246826 27.5324
0204 1399249267 26.6089
0205 1399251708 27.1647
0206 1399254150 27.1336
0207 1399256591 27.0879
0208 1399259033 27.4671
0209 1399261474 27.6729
0210 1399263916 26.9875
0211 1399266357 27.1293
0212 1399268798 27.5519
0213 1399271240 27.1908
0214 1399273681 27.8636
0215 1399276123 28.4966
0216 1399278564 27.0532
0217 1399281005 27.0999
0218 1399283447 27.1861
0219 1399285888 27.5292
0220 1399288330 27.4044
0221 1399290771 27.3479
0222 1399293212 27.3095
0223 1399295654 27.1704
0224 1399298095 27.6955
0225 1399300537 27.3063
0226 1399302978 27.2243
0227 1399305419 28.1891
0228 1399307861 28.0613
0229 1399310302 27.4583
0230 1399312744 29.0310
0231 1399315185 28.3223
0232 1399317626 27.7578
0233 1399320068 28.3251
0234 1399322509 27.9749
0235 1399324951 27.4324
0236 1399327392 28.0672
0237 1399329833 32.6918
0238 1399332275 29.1133
0239 1399334716 27.5814
0240 1399337158 28.0749
0241 1399339599 27.7463
0242 1399342041 27.5524
0243 1399344482 27.6984
0244 1399346923 27.3086
0245 1399349365 27.3926
0246 1399351806 27.7167
0247 1399354248 26.9723
0248 1399356689 27.4146
0249 1399359130 27.4726
0250 1399361572 27.5806
0251 1399364013 27.8242
0252 1399366455 28.4213
0253 1399368896 28.7948
0254 1399371337 27.8781
0255 1399373779 28.5975
0256 1399376220 27.6921
0257 1399378662 27.5291
0258 1399381103 28.4412
0259 1399383544 27.7007
0260 1399385986 27.4883
0261 1399388427 27.6228
0262 1399390869 27.7320
0263 1399393310 27.3603
0264 1399395751 27.6184
0265 1399398193 27.4432
0266 1399400634 27.6397
0267 1399403076 27.5478
0268 1399405517 27.5171
0269 1399407958 27.1505
0270 1399410400 27.3638
0271 1399412841 27.5120
0272 1399415283 27.1908
0273 1399417724 27.1911
0274 1399420166 27.3748
0275 1399422607 26.9125
0276 1399425048 27.5302
0277 1399427490 27.7381
0278 1399429931 27.4934
0279 1399432373 27.6871
0280 1399434814 27.9856
0281 1399437255 27.3811
0282 1399439697 27.2521
0283 1399442138 28.9319
0284 1399444580 27.6804
0285 1399447021 27.3438
0286 1399449462 27.4710
0287 1399451904 27.8512
0288 1399454345 27.0698
0289 1399456787 27.4320
0290 1399459228 27.1023
0291 1399461669 27.0327
0292 1399464111 27.3704
0293 1399466552 27.0696
0294 1399468994 26.8954
0295 1399471435 27.1256
0296 1399473876 27.5888
0297 1399476318 27.2698
0298 1399478759 26.9951
0299 1399481201 27.0831
0300 1399483642 26.8806
0301 1399486083 27.3325
0302 1399488525 27.3105
0303 1399490966 27.0045
0304 1399493408 27.5514
0305 1399495849 27.8744
0306 1399498291 27.4514
0307 1399500732 28.4143
0308 1399503173 28.1761
0309 1399505615 27.2195
0310 1399508056 27.1470
0311 1399510498 27.4467
0312 1399512939 27.0031
0313 1399515380 27.0427
0314 1399517822 27.3062
0315 1399520263 27.0770
0316 1399522705 26.9426
0317 1399525146 27.4785
0318 1399527587 27.1146
0319 1399530029 27.3907
0320 1399532470 27.4702
0321 1399534912 27.3840
0322 1399537353 27.2632
0323 1399539794 27.4069
0324 1399542236 27.1862
0325 1399544677 26.9694
0326 1399547119 27.2702
0327 1399549560 27.3153
0328 1399552001 27.2641
0329 1399554443 28.0040
0330 1399556884 28.4638
0331 1399559326 27.5666
0332 1399561767 28.2582
0333 1399564208 29.8355
0334 1399566650 27.2117
0335 1399569091 27.2828
0336 1399571533 27.7972
0337 1399573974 27.1171
0338 1399576416 27.2156
0339 1399578857 27.4937
0340 1399581298 27.4030
0341 1399583740 27.2652
0342 1399586181 27.6008
0343 1399588623 27.8059
0344 1399591064 27.7205
0345 1399593505 28.2171
0346 1399595947 27.6760
0347 1399598388 27.6605
0348 1399600830 27.7205
0349 1399603271 27.7176
0350 1399605712 27.5202
0351 1399608154 27.8325
0352 1399610595 27.7155
0353 1399613037 27.8430
0354 1399615478 28.0544
0355 1399617919 28.5184
0356 1399620361 28.1765
0357 1399622802 28.9150
0358 1399625244 29.9295
0359 1399627685 28.0830
0360 1399630126 28.1844
0361 1399632568 28.5747
0362 1399635009 27.9004
0363 1399637451 28.3651
0364 1399639892 28.0954
0365 1399642333 28.1399
0366 1399644775 28.1749
0367 1399647216 28.6190
0368 1399649658 28.3867
0369 1399652099 28.6556
0370 1399654541 28.5803
0371 1399656982 28.4175
0372 1399659423 28.4290
0373 1399661865 28.4738
0374 1399664306 28.2845
0375 1399666748 28.6503
0376 1399669189 29.0876
0377 1399671630 28.6594
0378 1399674072 28.6926
0379 1399676513 31.4764
0380 1399678955 30.4872
0381 1399681396 29.5252
0382 1399683837 31.1530
0383 1399686279 31.2135
0384 1399688720 28.9479
0385 1399691162 29.1000
0386 1399693603 29.3092
0387 1399696044 28.8765
0388 1399698486 29.1878
0389 1399700927 29.4555
0390 1399703369 29.4475
0391 1399705810 29.0404
0392 1399708251 29.3744
0393 1399710693 29.3630
0394 1399713134 29.5196
0395 1399715576 30.1560
0396 1399718017 29.9545
0397 1399720458 30.2935
0398 1399722900 30.0008
0399 1399725341 29.9054
0400 1399727783 29.8895
0401 1399730224 29.9874
0402 1399732666 29.6321
0403 1399735107 29.9068
0404 1399737548 30.3598
0405 1399739990 29.7261
0406 1399742431 30.2190
0407 1399744873 31.8598
0408 1399747314 31.8398
0409 1399749755 33.2141
0410 1399752197 32.0258
0411 1399754638 30.4049
0412 1399757080 31.0828
0413 1399759521 31.1225
0414 1399761962 30.1116
0415 1399764404 29.9389
0416 1399766845 30.5778
0417 1399769287 30.8329
0418 1399771728 30.3621
0419 1399774169 30.8225
0420 1399776611 31.5582
0421 1399779052 31.5454
0422 1399781494 30.9896
0423 1399783935 30.8842
0424 1399786376 31.3109
0425 1399788818 30.8002
0426 1399791259 32.9662
0427 1399793701 35.3477
0428 1399796142 31.6018
0429 1399798583 32.1145
0430 1399801025 31.6075
0431 1399803466 31.7180
0432 1399805908 32.4852
0433 1399808349 33.1053
0434 1399810791 32.1130
0435 1399813232 32.2280
0436 1399815673 31.7503
0437 1399818115 31.6074
0438 1399820556 31.9459
0439 1399822998 32.1279
0440 1399825439 31.5992
0441 1399827880 32.0558
0442 1399830322 32.8659
0443 1399832763 32.1713
0444 1399835205 32.0946
0445 1399837646 31.9329
0446 1399840087 32.7124
0447 1399842529 32.8331
0448 1399844970 34.1668
0449 1399847412 33.1912
0450 1399849853 32.0635
0451 1399852294 32.7859
0452 1399854736 32.2085
0453 1399857177 33.0547
0454 1399859619 33.8378
0455 1399862060 32.9028
0456 1399864501 33.0137
0457 1399866943 34.9185
0458 1399869384 33.6825
0459 1399871826 33.4122
0460 1399874267 33.3331
0461 1399876708 32.9496
0462 1399879150 33.1009
0463 1399881591 33.0542
0464 1399884033 33.5870
0465 1399886474 33.0382
0466 1399888916 34.0817
0467 1399891357 33.2064
0468 1399893798 33.2206
0469 1399896240 56.9588
0470 1399898681 62.7906
0471 1399901123 33.8855
0472 1399903564 33.9456
0473 1399906005 33.7739
0474 1399908447 33.3615
0475 1399910888 33.5812
0476 1399913330 35.0233
0477 1399915771 34.7399
0478 1399918212 34.3949
0479 1399920654 34.3422
0480 1399923095 34.3729
0481 1399925537 34.1031
0482 1399927978 34.8689
0483 1399930419 34.6630
0484 1399932861 35.0508
0485 1399935302 35.4989
0486 1399937744 34.4253
0487 1399940185 34.7796
0488 1399942626 34.7161
0489 1399945068 34.5378
0490 1399947509 34.6731
0491 1399949951 35.2968
0492 1399952392 34.9386
0493 1399954833 35.0502
0494 1399957275 35.9069
0495 1399959716 35.5808
0496 1399962158 35.0189
0497 1399964599 35.1112
0498 1399967041 35.6047
0499 1399969482 35.4782
0500 1399971923 36.4822
0501 1399974365 39.5075
0502 1399976806 44.8705
0503 1399979248 59.0857
0504 1399981689 40.4302
0505 1399984130 37.8342
0506 1399986572 59.4431
0507 1399989013 80.7221
0508 1399991455 57.8256
0509 1399993896 52.0239
0510 1399996337 369.7891
0511 1399998779 615.0089
0512 1400001220 74.5393
0513 1400003662 43.6621
0514 1400006103 40.4970
0515 1400008544 38.7308
0516 1400010986 39.1383
0517 1400013427 43.4121
0518 1400015869 43.9538
0519 1400018310 36.8153
0520 1400020751 40.4149
0521 1400023193 42.4515
0522 1400025634 36.7090
0523 1400028076 36.5613
0524 1400030517 36.1892
0525 1400032958 36.1789
0526 1400035400 35.7050
0527 1400037841 35.7196
0528 1400040283 36.8494
0529 1400042724 35.7768
0530 1400045166 35.0686
0531 1400047607 38.1826
0532 1400050048 36.6790
0533 1400052490 34.5410
0534 1400054931 35.1055
0535 1400057373 34.8739
0536 1400059814 34.6142
0537 1400062255 34.0548
0538 1400064697 34.0417
0539 1400067138 33.8208
0540 1400069580 33.8055
0541 1400072021 34.6787
0542 1400074462 33.8136
0543 1400076904 34.0232
0544 1400079345 34.1670
0545 1400081787 33.7969
0546 1400084228 34.2233
0547 1400086669 35.7589
0548 1400089111 33.9220
0549 1400091552 33.6439
0550 1400093994 34.0755
0551 1400096435 34.1845
0552 1400098876 33.2738
0553 1400101318 33.3959
0554 1400103759 33.9612
0555 1400106201 33.7759
0556 1400108642 39.2084
0557 1400111083 36.2558
0558 1400113525 33.4052
0559 1400115966 33.2703
0560 1400118408 33.5242
0561 1400120849 33.2412
0562 1400123291 33.5231
0563 1400125732 33.5431
0564 1400128173 33.3772
0565 1400130615 33.1447
0566 1400133056 32.9049
0567 1400135498 32.8278
0568 1400137939 32.4047
0569 1400140380 32.5692
0570 1400142822 32.6426
0571 1400145263 32.7034
0572 1400147705 33.3309
0573 1400150146 32.8104
0574 1400152587 32.4826
0575 1400155029 33.7977
0576 1400157470 33.1550
0577 1400159912 33.0342
0578 1400162353 34.2850
0579 1400164794 33.5406
0580 1400167236 33.0050
0581 1400169677 33.3081
0582 1400172119 32.8518
0583 1400174560 32.1215
0584 1400177001 32.4022
0585 1400179443 32.0885
0586 1400181884 32.3641
0587 1400184326 32.0614
0588 1400186767 32.9695
0589 1400189208 32.2453
0590 1400191650 32.3318
0591 1400194091 32.3870
0592 1400196533 31.9825
0593 1400198974 31.6429
0594 1400201416 31.8115
0595 1400203857 31.8342
0596 1400206298 31.9076
0597 1400208740 32.0266
0598 1400211181 31.8417
0599 1400213623 31.8985
0600 1400216064 32.4338
0601 1400218505 31.9927
0602 1400220947 31.5490
0603 1400223388 31.9026
0604 1400225830 31.5416
0605 1400228271 30.8296
0606 1400230712 31.1535
0607 1400233154 31.5213
0608 1400235595 31.3184
0609 1400238037 30.6451
0610 1400240478 31.1620
0611 1400242919 30.7093
0612 1400245361 30.8667
0613 1400247802 30.9182
0614 1400250244 30.5671
0615 1400252685 30.6462
0616 1400255126 31.3529
0617 1400257568 31.4679
0618 1400260009 33.4062
0619 1400262451 30.8304
0620 1400264892 30.3331
0621 1400267333 30.0631
0622 1400269775 30.4229
0623 1400272216 30.2230
0624 1400274658 30.0529
0625 1400277099 31.3083
0626 1400279541 30.5282
0627 1400281982 30.5853
0628 1400284423 32.0571
0629 1400286865 30.5980
0630 1400289306 30.0782
0631 1400291748 32.0167
0632 1400294189 30.9172
0633 1400296630 30.0705
0634 1400299072 29.9829
0635 1400301513 30.4378
0636 1400303955 32.7124
0637 1400306396 30.4871
0638 1400308837 30.0099
0639 1400311279 29.5968
0640 1400313720 29.7235
0641 1400316162 29.6299
0642 1400318603 29.3948
0643 1400321044 29.6276
0644 1400323486 29.9600
0645 1400325927 28.9886
0646 1400328369 30.0622
0647 1400330810 29.8370
0648 1400333251 29.1001
0649 1400335693 29.5137
0650 1400338134 29.1970
0651 1400340576 29.2342
0652 1400343017 30.9766
0653 1400345458 30.6645
0654 1400347900 29.0726
0655 1400350341 29.2441
0656 1400352783 30.1289
0657 1400355224 29.3724
0658 1400357666 28.7815
0659 1400360107 28.8169
0660 1400362548 28.8696
0661 1400364990 28.6553
0662 1400367431 28.8625
0663 1400369873 28.8844
0664 1400372314 28.5184
0665 1400374755 28.8274
0666 1400377197 29.5833
0667 1400379638 29.9849
0668 1400382080 28.6973
0669 1400384521 28.5574
0670 1400386962 28.6550
0671 1400389404 29.0925
0672 1400391845 29.1364
0673 1400394287 28.4802
0674 1400396728 28.7566
0675 1400399169 29.0317
0676 1400401611 28.4798
0677 1400404052 28.6333
0678 1400406494 28.9255
0679 1400408935 28.2179
0680 1400411376 28.7973
0681 1400413818 30.8794
0682 1400416259 28.7092
0683 1400418701 28.0065
0684 1400421142 28.3405
0685 1400423583 28.2057
0686 1400426025 27.9268
0687 1400428466 28.4642
0688 1400430908 28.2685
0689 1400433349 28.3052
0690 1400435791 28.4932
0691 1400438232 27.8850
0692 1400440673 28.1346
0693 1400443115 28.6190
0694 1400445556 28.4150
0695 1400447998 28.1720
0696 1400450439 28.3245
0697 1400452880 27.9405
0698 1400455322 27.9699
0699 1400457763 28.5068
0700 1400460205 28.2281
0701 1400462646 28.0932
0702 1400465087 29.4149
0703 1400467529 29.6403
0704 1400469970 28.1998
0705 1400472412 28.7833
0706 1400474853 30.1814
0707 1400477294 28.3804
0708 1400479736 28.0670
0709 1400482177 28.1010
0710 1400484619 28.1080
0711 1400487060 28.1686
0712 1400489501 28.2039
0713 1400491943 27.7707
0714 1400494384 28.3266
0715 1400496826 29.7482
0716 1400499267 29.5015
0717 1400501708 28.4277
0718 1400504150 28.2818
0719 1400506591 28.5442
0720 1400509033 28.0852
0721 1400511474 28.3013
0722 1400513916 27.9473
0723 1400516357 27.8490
0724 1400518798 28.5421
0725 1400521240 28.5041
0726 1400523681 28.1677
0727 1400526123 29.5109
0728 1400528564 28.8763
0729 1400531005 28.1380
0730 1400533447 29.3939
0731 1400535888 30.1726
0732 1400538330 28.8461
0733 1400540771 28.3397
0734 1400543212 28.9140
0735 1400545654 28.0763
0736 1400548095 28.2247
0737 1400550537 28.7351
0738 1400552978 28.3753
0739 1400555419 28.3126
0740 1400557861 29.0875
0741 1400560302 28.3509
0742 1400562744 28.3914
0743 1400565185 28.6630
0744 1400567626 28.6092
0745 1400570068 28.4972
0746 1400572509 28.7788
0747 1400574951 28.5211
0748 1400577392 28.2997
0749 1400579833 28.6021
0750 1400582275 28.9538
0751 1400584716 28.6232
0752 1400587158 29.6432
0753 1400589599 28.9804
0754 1400592041 28.6514
0755 1400594482 30.9723
0756 1400596923 31.8090
0757 1400599365 28.6004
0758 1400601806 28.7049
0759 1400604248 28.9368
0760 1400606689 28.4769
0761 1400609130 28.7639
0762 1400611572 28.7814
0763 1400614013 28.8873
0764 1400616455 28.6042
0765 1400618896 28.9027
0766 1400621337 28.8174
0767 1400623779 28.8455
0768 1400626220 29.8828
0769 1400628662 28.9574
0770 1400631103 28.8813
0771 1400633544 29.2549
0772 1400635986 28.7059
0773 1400638427 28.8470
0774 1400640869 29.7570
0775 1400643310 29.0678
0776 1400645751 29.0665
0777 1400648193 30.1473
0778 1400650634 29.1435
0779 1400653076 28.9336
0780 1400655517 29.3527
0781 1400657958 29.2977
0782 1400660400 28.8701
0783 1400662841 29.0527
0784 1400665283 29.0853
0785 1400667724 29.0097
0786 1400670166 29.5974
0787 1400672607 35.6462
0788 1400675048 45.9745
0789 1400677490 30.7762
0790 1400679931 29.2885
0791 1400682373 28.6187
0792 1400684814 28.9905
0793 1400687255 29.1318
0794 1400689697 29.1597
0795 1400692138 33.6959
0796 1400694580 37.5881
0797 1400697021 31.7025
0798 1400699462 29.0872
0799 1400701904 29.1339
0800 1400704345 28.7091
0801 1400706787 29.0220
0802 1400709228 29.2800
0803 1400711669 28.7223
0804 1400714111 29.1260
0805 1400716552 31.7317
0806 1400718994 30.2062
0807 1400721435 28.8139
0808 1400723876 29.1255
0809 1400726318 28.9915
0810 1400728759 29.1619
0811 1400731201 29.1623
0812 1400733642 28.8145
0813 1400736083 28.8324
0814 1400738525 29.1945
0815 1400740966 28.8910
0816 1400743408 28.4469
0817 1400745849 29.0076
0818 1400748291 29.2596
0819 1400750732 28.6378
0820 1400753173 28.5104
0821 1400755615 28.4651
0822 1400758056 28.3418
0823 1400760498 28.5277
0824 1400762939 28.5571
0825 1400765380 28.2158
0826 1400767822 30.1098
0827 1400770263 29.9372
0828 1400772705 28.5668
0829 1400775146 28.2279
0830 1400777587 30.3117
0831 1400780029 28.7326
0832 1400782470 28.1120
0833 1400784912 28.3637
0834 1400787353 28.0020
0835 1400789794 28.0013
0836 1400792236 28.2152
0837 1400794677 28.1242
0838 1400797119 27.8019
0839 1400799560 28.4142
0840 1400802001 27.6129
0841 1400804443 27.6529
0842 1400806884 27.7213
0843 1400809326 27.5532
0844 1400811767 27.3185
0845 1400814208 27.6619
0846 1400816650 27.5975
0847 1400819091 27.3115
0848 1400821533 27.8474
0849 1400823974 28.4564
0850 1400826416 27.0154
0851 1400828857 27.5374
0852 1400831298 27.2310
0853 1400833740 26.6209
0854 1400836181 26.8676
0855 1400838623 27.6873
0856 1400841064 26.6831
0857 1400843505 26.4419
0858 1400845947 26.4766
0859 1400848388 26.1193
0860 1400850830 26.0070
0861 1400853271 26.3690
0862 1400855712 26.0025
0863 1400858154 25.7777
0864 1400860595 25.6559
0865 1400863037 25.2698
0866 1400865478 25.0679
0867 1400867919 25.1711
0868 1400870361 25.1437
0869 1400872802 25.0930
0870 1400875244 25.1643
0871 1400877685 25.2982
0872 1400880126 24.6815
0873 1400882568 24.8144
0874 1400885009 24.8117
0875 1400887451 27.7633
0876 1400889892 26.4276
0877 1400892333 24.7205
0878 1400894775 24.1129
0879 1400897216 24.2528
0880 1400899658 24.7857
0881 1400902099 23.6067
0882 1400904541 23.2943
0883 1400906982 23.2647
0884 1400909423 23.3484
0885 1400911865 23.0913
0886 1400914306 23.1884
0887 1400916748 22.9272
0888 1400919189 22.7699
0889 1400921630 23.0413
0890 1400924072 22.8590
0891 1400926513 22.9555
0892 1400928955 23.1753
0893 1400931396 22.1138
0894 1400933837 22.0320
0895 1400936279 21.8647
0896 1400938720 21.5481
0897 1400941162 21.4822
0898 1400943603 21.9805
0899 1400946044 21.9277
0900 1400948486 21.0823
0901 1400950927 21.4964
0902 1400953369 20.7786
0903 1400955810 20.5871
0904 1400958251 21.1404
0905 1400960693 21.3691
0906 1400963134 20.3613
0907 1400965576 20.8984
0908 1400968017 20.0794
0909 1400970458 19.6586
0910 1400972900 19.7981
0911 1400975341 19.5822
0912 1400977783 19.1087
0913 1400980224 19.0575
0914 1400982666 18.8983
0915 1400985107 18.7146
0916 1400987548 18.6649
0917 1400989990 18.3807
0918 1400992431 18.1479
0919 1400994873 17.9173
0920 1400997314 17.7581
0921 1400999755 17.5126
0922 1401002197 17.5878
0923 1401004638 17.4626
0924 1401007080 17.1979
0925 1401009521 17.1687
0926 1401011962 17.2404
0927 1401014404 16.6524
0928 1401016845 16.2775
0929 1401019287 16.5292
0930 1401021728 16.4183
0931 1401024169 15.8463
0932 1401026611 15.8687
0933 1401029052 15.8321
0934 1401031494 15.3711
0935 1401033935 15.1621
0936 1401036376 15.0103
0937 1401038818 14.9594
0938 1401041259 14.7647
0939 1401043701 14.7425
0940 1401046142 14.2693
0941 1401048583 14.2265
0942 1401051025 14.0541
0943 1401053466 13.9877
0944 1401055908 13.8475
0945 1401058349 13.5016
0946 1401060791 13.3746
0947 1401063232 13.3437
0948 1401065673 13.3439
0949 1401068115 13.0352
0950 1401070556 12.8377
0951 1401072998 12.7771
0952 1401075439 12.4157
0953 1401077880 12.2841
0954 1401080322 12.6387
0955 1401082763 12.5423
0956 1401085205 11.8526
0957 1401087646 11.9127
0958 1401090087 11.8075
0959 1401092529 11.5147
0960 1401094970 11.3739
0961 1401097412 11.5602
0962 1401099853 11.1633
0963 1401102294 11.0518
0964 1401104736 10.7239
0965 1401107177 10.4546
0966 1401109619 10.3794
0967 1401112060 10.2702
0968 1401114501 10.1781
0969 1401116943 9.9553
0970 1401119384 9.8753
0971 1401121826 9.7889
0972 1401124267 9.8403
0973 1401126708 9.8710
0974 1401129150 9.5672
0975 1401131591 9.4211
0976 1401134033 9.5997
0977 1401136474 9.0454
0978 1401138916 8.9320
0979 1401141357 9.0356
0980 1401143798 8.7181
0981 1401146240 8.5511
0982 1401148681 8.5804
0983 1401151123 8.4211
0984 1401153564 8.2643
0985 1401156005 8.0726
0986 1401158447 8.0349
0987 1401160888 7.8837
0988 1401163330 7.8825
0989 1401165771 7.8008
0990 1401168212 7.6408
0991 1401170654 7.6354
0992 1401173095 7.5715
0993 1401175537 7.4069
0994 1401177978 7.4980
0995 1401180419 7.4149
0996 1401182861 7.1492
0997 1401185302 7.1146
0998 1401187744 7.3603
0999 1401190185 7.1818
1000 1401192626 7.0052
1001 1401195068 7.2202
1002 1401197509 10.1723
1003 1401199951 8.1499
1004 1401202392 7.0496
1005 1401204833 6.7101
1006 1401207275 6.4683
1007 1401209716 6.4859
1008 1401212158 6.4183
1009 1401214599 6.5523
1010 1401217041 6.3217
1011 1401219482 6.2258
1012 1401221923 6.2799
1013 1401224365 6.2115
1014 1401226806 6.1745
1015 1401229248 6.0858
1016 1401231689 6.1199
1017 1401234130 6.0309
1018 1401236572 6.0116
1019 1401239013 6.0790
1020 1401241455 6.0661
1021 1401243896 6.0931
1022 1401246337 6.0766
1023 1401248779 6.1014
