# File: 20-05-31T224223.ast
# NOTEA     = None Attached.  RTLSDR Dongle Test
# NOTEB     = Spectral Integration
# OBSERVER  = Science Aficionado
# DEVICE    = rtlsdr=0
# DATADIR   = ../data/
# SITE      = None Attached.  RTLSDR Dongle Test
# CITY      = Green Bank
# REGION    = West Virginia
# COUNTRY   = US
# TELTYPE   = Bubble Wrap  Horn
# FRAME     = TOPO
# GAIN1     = 49.0
# GAIN2     = 11.0
# GAIN3     = 11.0
# GAIN4     = 0.0
# Count     = 10000
# CenterFreq= 1400000000.0
# Bandwidth = 2500000.0
# Duration  = 41.809694
# DeltaX    = 5859.375
# TSYS      = 200.0
# TRX       = 100.0
# TRMS      = 2.0
# TINT      = 1.0
# KPERC     = 100.0
# GAINFACT  = 1.0
# BUNIT     = Counts
# NCHAN     = 1024
# NSPEC     = 1
# NTIME     = 0
# NSAMPLES  = 0
# EPEAK     = 4.10875183718
# ERMS      = 0.995973393526
# EMJD      = 58568.808999981004 
# REFCHAN   = 512.0
# REFSAMPL  = 256.0
# NAVE      = 100
# NMEDIAN   = 1024
# Fft_rate  = 5000
# UTC       = 2020-05-31 22:42:23.290510
# SECONDS   =       0.0000000000 
# LST       = 10:02:33.570
# AZ        = 180.0
# EL        = 90.0
# TELLON    = -79:50:22.920
# TELLAT    = +38:25:59.160
# RA        = 10:00:08.130
# DEC       = +38:37:34.000
# GALLON    = 183:56:18.20
# GALLAT    = +52:36:58.10
# ALT_SUN   = +20:07:52.6
# AZ_SUN    = +282:45:01.6
# ETAA      = 0.8
# ETAB      = 0.99
# POLANGLE  = 0.0
# TELSIZEAM = 1.0
# TELSIZEBM = 1.0
# AST_VERS  = 05.01
0000 1398751220 6.6365
0001 1398753662 6.5262
0002 1398756103 6.7001
0003 1398758544 6.8080
0004 1398760986 6.7146
0005 1398763427 6.7307
0006 1398765869 6.5643
0007 1398768310 6.5550
0008 1398770751 6.4889
0009 1398773193 6.6377
0010 1398775634 6.7376
0011 1398778076 6.7585
0012 1398780517 6.7232
0013 1398782958 6.8050
0014 1398785400 6.8106
0015 1398787841 7.1909
0016 1398790283 6.8897
0017 1398792724 6.9664
0018 1398795166 7.1876
0019 1398797607 10.0190
0020 1398800048 8.2068
0021 1398802490 7.1443
0022 1398804931 7.0803
0023 1398807373 7.0677
0024 1398809814 7.1624
0025 1398812255 7.3589
0026 1398814697 7.4878
0027 1398817138 7.4443
0028 1398819580 7.4841
0029 1398822021 7.5125
0030 1398824462 7.6484
0031 1398826904 7.7293
0032 1398829345 7.8093
0033 1398831787 7.7879
0034 1398834228 8.1174
0035 1398836669 8.3229
0036 1398839111 8.0859
0037 1398841552 8.2524
0038 1398843994 8.3851
0039 1398846435 8.4147
0040 1398848876 8.5314
0041 1398851318 8.6399
0042 1398853759 8.6872
0043 1398856201 8.8019
0044 1398858642 9.0476
0045 1398861083 9.0016
0046 1398863525 9.0389
0047 1398865966 9.2318
0048 1398868408 9.4707
0049 1398870849 9.5741
0050 1398873291 9.7881
0051 1398875732 9.7167
0052 1398878173 9.8975
0053 1398880615 10.1120
0054 1398883056 10.0917
0055 1398885498 10.4363
0056 1398887939 11.1418
0057 1398890380 10.6558
0058 1398892822 10.6729
0059 1398895263 11.5494
0060 1398897705 11.7269
0061 1398900146 11.2313
0062 1398902587 11.1725
0063 1398905029 11.2492
0064 1398907470 11.6787
0065 1398909912 11.8279
0066 1398912353 12.0419
0067 1398914794 12.6651
0068 1398917236 12.2914
0069 1398919677 12.6523
0070 1398922119 12.4447
0071 1398924560 12.6765
0072 1398927001 13.1119
0073 1398929443 13.0405
0074 1398931884 13.1580
0075 1398934326 13.3487
0076 1398936767 13.4441
0077 1398939208 13.6543
0078 1398941650 14.0026
0079 1398944091 13.7492
0080 1398946533 14.0096
0081 1398948974 14.4732
0082 1398951416 14.4630
0083 1398953857 14.4242
0084 1398956298 15.3269
0085 1398958740 15.2673
0086 1398961181 14.9951
0087 1398963623 15.4447
0088 1398966064 15.4328
0089 1398968505 15.5841
0090 1398970947 16.0494
0091 1398973388 16.4048
0092 1398975830 15.9463
0093 1398978271 16.5468
0094 1398980712 16.5604
0095 1398983154 16.5484
0096 1398985595 17.3099
0097 1398988037 18.6756
0098 1398990478 17.3215
0099 1398992919 17.3157
0100 1398995361 17.5092
0101 1398997802 17.5108
0102 1399000244 18.0813
0103 1399002685 18.3401
0104 1399005126 18.1825
0105 1399007568 18.5315
0106 1399010009 19.0877
0107 1399012451 18.7805
0108 1399014892 18.8826
0109 1399017333 20.3167
0110 1399019775 19.4159
0111 1399022216 19.4824
0112 1399024658 19.8540
0113 1399027099 20.1183
0114 1399029541 20.0649
0115 1399031982 20.0196
0116 1399034423 20.3514
0117 1399036865 20.1946
0118 1399039306 20.6681
0119 1399041748 20.9900
0120 1399044189 20.8958
0121 1399046630 21.2208
0122 1399049072 21.1571
0123 1399051513 20.9751
0124 1399053955 21.4344
0125 1399056396 21.9485
0126 1399058837 21.8042
0127 1399061279 22.0968
0128 1399063720 22.4660
0129 1399066162 21.7634
0130 1399068603 22.5247
0131 1399071044 22.8370
0132 1399073486 22.4159
0133 1399075927 22.8834
0134 1399078369 23.9732
0135 1399080810 23.0154
0136 1399083251 22.9990
0137 1399085693 23.7458
0138 1399088134 24.5400
0139 1399090576 23.6029
0140 1399093017 24.2144
0141 1399095458 24.5181
0142 1399097900 24.1907
0143 1399100341 24.5328
0144 1399102783 24.5931
0145 1399105224 24.3767
0146 1399107666 24.4895
0147 1399110107 24.9471
0148 1399112548 24.7718
0149 1399114990 24.8679
0150 1399117431 25.4107
0151 1399119873 25.3997
0152 1399122314 25.6039
0153 1399124755 25.5960
0154 1399127197 25.6979
0155 1399129638 26.3456
0156 1399132080 26.4228
0157 1399134521 28.0973
0158 1399136962 28.5136
0159 1399139404 28.1402
0160 1399141845 26.6063
0161 1399144287 26.5372
0162 1399146728 27.0044
0163 1399149169 26.7698
0164 1399151611 26.8966
0165 1399154052 27.6023
0166 1399156494 26.9856
0167 1399158935 27.0978
0168 1399161376 27.5146
0169 1399163818 27.2682
0170 1399166259 27.5109
0171 1399168701 27.8137
0172 1399171142 27.3463
0173 1399173583 27.6592
0174 1399176025 27.8928
0175 1399178466 27.9728
0176 1399180908 27.9465
0177 1399183349 28.3413
0178 1399185791 28.3711
0179 1399188232 28.9535
0180 1399190673 29.7907
0181 1399193115 28.9061
0182 1399195556 28.0054
0183 1399197998 29.1877
0184 1399200439 30.2657
0185 1399202880 28.5002
0186 1399205322 29.1026
0187 1399207763 30.0638
0188 1399210205 29.0588
0189 1399212646 29.0460
0190 1399215087 29.5101
0191 1399217529 29.2076
0192 1399219970 29.3885
0193 1399222412 29.9264
0194 1399224853 29.0209
0195 1399227294 28.9582
0196 1399229736 29.2184
0197 1399232177 29.1683
0198 1399234619 29.4984
0199 1399237060 29.7581
0200 1399239501 29.2779
0201 1399241943 29.6642
0202 1399244384 31.1349
0203 1399246826 30.1002
0204 1399249267 29.5657
0205 1399251708 29.9023
0206 1399254150 29.9552
0207 1399256591 29.6434
0208 1399259033 30.4457
0209 1399261474 30.2982
0210 1399263916 29.5244
0211 1399266357 30.0575
0212 1399268798 30.1058
0213 1399271240 30.1007
0214 1399273681 30.8036
0215 1399276123 30.8736
0216 1399278564 30.1894
0217 1399281005 29.9212
0218 1399283447 30.1375
0219 1399285888 31.5091
0220 1399288330 32.9399
0221 1399290771 30.5798
0222 1399293212 30.0497
0223 1399295654 29.7782
0224 1399298095 30.3175
0225 1399300537 29.9449
0226 1399302978 30.0038
0227 1399305419 31.1038
0228 1399307861 30.5811
0229 1399310302 30.4295
0230 1399312744 31.8074
0231 1399315185 30.6457
0232 1399317626 30.1526
0233 1399320068 30.9767
0234 1399322509 31.0470
0235 1399324951 30.0473
0236 1399327392 30.3713
0237 1399329833 34.6086
0238 1399332275 31.6832
0239 1399334716 29.9537
0240 1399337158 30.5560
0241 1399339599 30.3628
0242 1399342041 30.5591
0243 1399344482 30.4999
0244 1399346923 29.9838
0245 1399349365 30.0996
0246 1399351806 30.4708
0247 1399354248 30.2128
0248 1399356689 30.3387
0249 1399359130 30.3696
0250 1399361572 30.3130
0251 1399364013 30.8760
0252 1399366455 31.1604
0253 1399368896 31.2708
0254 1399371337 30.5231
0255 1399373779 31.4925
0256 1399376220 30.3976
0257 1399378662 30.4949
0258 1399381103 31.5493
0259 1399383544 30.5481
0260 1399385986 30.0976
0261 1399388427 30.3773
0262 1399390869 30.2818
0263 1399393310 30.0512
0264 1399395751 30.3225
0265 1399398193 29.9240
0266 1399400634 30.2191
0267 1399403076 30.2079
0268 1399405517 30.1590
0269 1399407958 30.1032
0270 1399410400 30.1606
0271 1399412841 30.3634
0272 1399415283 29.8579
0273 1399417724 30.0938
0274 1399420166 29.7830
0275 1399422607 29.8296
0276 1399425048 30.0206
0277 1399427490 30.5540
0278 1399429931 29.8908
0279 1399432373 30.4089
0280 1399434814 31.1170
0281 1399437255 30.0433
0282 1399439697 30.1594
0283 1399442138 32.1572
0284 1399444580 30.6598
0285 1399447021 29.3755
0286 1399449462 30.5603
0287 1399451904 30.9103
0288 1399454345 29.7871
0289 1399456787 30.1370
0290 1399459228 30.1345
0291 1399461669 29.8306
0292 1399464111 29.6012
0293 1399466552 29.6253
0294 1399468994 29.5913
0295 1399471435 29.9979
0296 1399473876 30.2652
0297 1399476318 29.8051
0298 1399478759 29.6143
0299 1399481201 29.5005
0300 1399483642 29.7096
0301 1399486083 30.5337
0302 1399488525 31.3630
0303 1399490966 29.8250
0304 1399493408 30.3023
0305 1399495849 30.7142
0306 1399498291 30.0286
0307 1399500732 31.0670
0308 1399503173 31.0139
0309 1399505615 30.0754
0310 1399508056 29.5433
0311 1399510498 29.8945
0312 1399512939 29.7202
0313 1399515380 29.7720
0314 1399517822 30.2168
0315 1399520263 29.7667
0316 1399522705 29.9433
0317 1399525146 30.4595
0318 1399527587 30.2291
0319 1399530029 29.9687
0320 1399532470 30.3197
0321 1399534912 30.1654
0322 1399537353 29.8590
0323 1399539794 30.5683
0324 1399542236 30.2273
0325 1399544677 30.2819
0326 1399547119 30.2894
0327 1399549560 30.3712
0328 1399552001 29.8989
0329 1399554443 30.9183
0330 1399556884 31.6194
0331 1399559326 30.3226
0332 1399561767 31.5046
0333 1399564208 33.2748
0334 1399566650 30.2066
0335 1399569091 30.0018
0336 1399571533 30.7770
0337 1399573974 29.7621
0338 1399576416 29.9495
0339 1399578857 30.6000
0340 1399581298 30.1017
0341 1399583740 30.1496
0342 1399586181 32.4578
0343 1399588623 32.6246
0344 1399591064 30.8373
0345 1399593505 31.3785
0346 1399595947 31.0306
0347 1399598388 30.3835
0348 1399600830 30.5589
0349 1399603271 30.4626
0350 1399605712 30.5318
0351 1399608154 30.6904
0352 1399610595 30.4534
0353 1399613037 30.2772
0354 1399615478 31.0385
0355 1399617919 31.1375
0356 1399620361 31.2850
0357 1399622802 32.1229
0358 1399625244 33.6131
0359 1399627685 30.7251
0360 1399630126 31.1683
0361 1399632568 31.9310
0362 1399635009 30.8500
0363 1399637451 30.9986
0364 1399639892 31.1473
0365 1399642333 30.8784
0366 1399644775 31.1643
0367 1399647216 31.6451
0368 1399649658 31.4604
0369 1399652099 31.7738
0370 1399654541 31.9355
0371 1399656982 31.4107
0372 1399659423 31.3897
0373 1399661865 31.6733
0374 1399664306 31.2410
0375 1399666748 31.4728
0376 1399669189 32.0942
0377 1399671630 31.7095
0378 1399674072 31.5062
0379 1399676513 34.5597
0380 1399678955 33.7471
0381 1399681396 32.3838
0382 1399683837 34.3062
0383 1399686279 34.8272
0384 1399688720 31.7018
0385 1399691162 31.8884
0386 1399693603 32.5068
0387 1399696044 32.0038
0388 1399698486 32.2082
0389 1399700927 32.3901
0390 1399703369 32.0378
0391 1399705810 32.1587
0392 1399708251 32.1387
0393 1399710693 31.9189
0394 1399713134 32.7560
0395 1399715576 32.7101
0396 1399718017 33.0421
0397 1399720458 34.3669
0398 1399722900 33.2552
0399 1399725341 32.3835
0400 1399727783 32.6400
0401 1399730224 33.1974
0402 1399732666 32.7140
0403 1399735107 32.5014
0404 1399737548 33.5178
0405 1399739990 32.8521
0406 1399742431 33.0654
0407 1399744873 34.9774
0408 1399747314 35.1601
0409 1399749755 36.5678
0410 1399752197 35.5589
0411 1399754638 33.4455
0412 1399757080 33.7404
0413 1399759521 33.8635
0414 1399761962 33.3478
0415 1399764404 33.3185
0416 1399766845 33.6356
0417 1399769287 33.7298
0418 1399771728 33.5793
0419 1399774169 33.8937
0420 1399776611 34.6300
0421 1399779052 34.1402
0422 1399781494 33.9813
0423 1399783935 33.8779
0424 1399786376 35.8034
0425 1399788818 35.7459
0426 1399791259 36.0379
0427 1399793701 38.9959
0428 1399796142 34.5754
0429 1399798583 35.5042
0430 1399801025 34.7006
0431 1399803466 34.3381
0432 1399805908 35.8504
0433 1399808349 35.9722
0434 1399810791 34.8988
0435 1399813232 35.2193
0436 1399815673 35.0905
0437 1399818115 34.8810
0438 1399820556 35.4482
0439 1399822998 35.4672
0440 1399825439 34.7312
0441 1399827880 35.1494
0442 1399830322 35.6349
0443 1399832763 35.0239
0444 1399835205 35.1751
0445 1399837646 35.2575
0446 1399840087 35.7932
0447 1399842529 36.2106
0448 1399844970 37.1448
0449 1399847412 36.5556
0450 1399849853 35.5765
0451 1399852294 35.5607
0452 1399854736 35.4276
0453 1399857177 37.0482
0454 1399859619 37.2434
0455 1399862060 35.9970
0456 1399864501 36.1545
0457 1399866943 39.4385
0458 1399869384 37.0053
0459 1399871826 36.5135
0460 1399874267 36.1144
0461 1399876708 36.0445
0462 1399879150 36.2076
0463 1399881591 36.8221
0464 1399884033 36.8653
0465 1399886474 38.2911
0466 1399888916 38.3105
0467 1399891357 36.5286
0468 1399893798 36.4356
0469 1399896240 59.7553
0470 1399898681 66.2326
0471 1399901123 37.6637
0472 1399903564 37.4183
0473 1399906005 37.1134
0474 1399908447 37.1150
0475 1399910888 37.0598
0476 1399913330 38.4725
0477 1399915771 38.0462
0478 1399918212 37.3977
0479 1399920654 37.9140
0480 1399923095 37.7881
0481 1399925537 37.3059
0482 1399927978 38.7152
0483 1399930419 37.8608
0484 1399932861 38.6141
0485 1399935302 38.1599
0486 1399937744 37.4992
0487 1399940185 37.8792
0488 1399942626 38.6430
0489 1399945068 38.5064
0490 1399947509 38.3363
0491 1399949951 38.8932
0492 1399952392 38.8799
0493 1399954833 38.4946
0494 1399957275 38.8084
0495 1399959716 38.8171
0496 1399962158 38.3786
0497 1399964599 39.0479
0498 1399967041 38.9786
0499 1399969482 39.3121
0500 1399971923 39.6247
0501 1399974365 43.3661
0502 1399976806 47.2832
0503 1399979248 57.6097
0504 1399981689 50.4607
0505 1399984130 44.0226
0506 1399986572 62.2339
0507 1399989013 82.5581
0508 1399991455 61.7345
0509 1399993896 55.4093
0510 1399996337 333.9207
0511 1399998779 600.3721
0512 1400001220 84.4253
0513 1400003662 47.5838
0514 1400006103 44.3456
0515 1400008544 41.7952
0516 1400010986 42.6261
0517 1400013427 62.0668
0518 1400015869 68.2094
0519 1400018310 40.0730
0520 1400020751 43.5133
0521 1400023193 45.7070
0522 1400025634 40.2991
0523 1400028076 39.7694
0524 1400030517 39.4340
0525 1400032958 39.3976
0526 1400035400 39.2003
0527 1400037841 39.3692
0528 1400040283 40.4215
0529 1400042724 39.4802
0530 1400045166 37.8948
0531 1400047607 39.7118
0532 1400050048 39.8232
0533 1400052490 37.8791
0534 1400054931 38.6082
0535 1400057373 38.1280
0536 1400059814 37.9876
0537 1400062255 37.8425
0538 1400064697 37.4963
0539 1400067138 37.1172
0540 1400069580 37.5073
0541 1400072021 37.9387
0542 1400074462 37.1422
0543 1400076904 37.5660
0544 1400079345 37.4785
0545 1400081787 36.9270
0546 1400084228 38.3038
0547 1400086669 42.6260
0548 1400089111 39.2722
0549 1400091552 36.9188
0550 1400093994 37.2250
0551 1400096435 37.7421
0552 1400098876 36.8498
0553 1400101318 36.9132
0554 1400103759 37.3882
0555 1400106201 37.0524
0556 1400108642 41.8905
0557 1400111083 40.2330
0558 1400113525 37.0563
0559 1400115966 37.0495
0560 1400118408 36.9807
0561 1400120849 36.3055
0562 1400123291 36.9578
0563 1400125732 37.0072
0564 1400128173 36.6252
0565 1400130615 36.4505
0566 1400133056 36.4164
0567 1400135498 35.9840
0568 1400137939 36.1037
0569 1400140380 35.9982
0570 1400142822 36.1303
0571 1400145263 35.8620
0572 1400147705 36.5287
0573 1400150146 35.8837
0574 1400152587 35.7137
0575 1400155029 37.3037
0576 1400157470 36.4687
0577 1400159912 35.9477
0578 1400162353 37.9236
0579 1400164794 36.5476
0580 1400167236 36.0725
0581 1400169677 36.5787
0582 1400172119 36.7323
0583 1400174560 35.5797
0584 1400177001 35.3874
0585 1400179443 35.5207
0586 1400181884 35.1078
0587 1400184326 35.2901
0588 1400186767 36.8805
0589 1400189208 35.9099
0590 1400191650 35.3777
0591 1400194091 35.3734
0592 1400196533 35.0963
0593 1400198974 34.9205
0594 1400201416 35.3529
0595 1400203857 34.9804
0596 1400206298 34.6913
0597 1400208740 35.5992
0598 1400211181 35.1200
0599 1400213623 34.7175
0600 1400216064 35.2253
0601 1400218505 34.6744
0602 1400220947 34.3153
0603 1400223388 34.8082
0604 1400225830 34.4322
0605 1400228271 34.1499
0606 1400230712 34.6272
0607 1400233154 34.3655
0608 1400235595 34.1941
0609 1400238037 34.3558
0610 1400240478 34.1051
0611 1400242919 33.6449
0612 1400245361 33.3712
0613 1400247802 33.5691
0614 1400250244 33.3683
0615 1400252685 33.6249
0616 1400255126 34.2905
0617 1400257568 34.2383
0618 1400260009 36.6334
0619 1400262451 33.6348
0620 1400264892 33.0217
0621 1400267333 33.3570
0622 1400269775 33.7196
0623 1400272216 33.0698
0624 1400274658 33.0685
0625 1400277099 34.4630
0626 1400279541 33.3609
0627 1400281982 33.4100
0628 1400284423 35.2062
0629 1400286865 34.6176
0630 1400289306 33.2589
0631 1400291748 35.3540
0632 1400294189 33.6267
0633 1400296630 32.9264
0634 1400299072 32.7092
0635 1400301513 33.3826
0636 1400303955 35.5311
0637 1400306396 33.0784
0638 1400308837 32.3385
0639 1400311279 32.3068
0640 1400313720 32.4346
0641 1400316162 32.7910
0642 1400318603 32.4376
0643 1400321044 32.8244
0644 1400323486 32.7740
0645 1400325927 32.1702
0646 1400328369 32.4328
0647 1400330810 32.8758
0648 1400333251 32.2110
0649 1400335693 32.4747
0650 1400338134 32.4944
0651 1400340576 31.8653
0652 1400343017 33.2309
0653 1400345458 33.6460
0654 1400347900 31.7124
0655 1400350341 31.9329
0656 1400352783 32.6119
0657 1400355224 32.0115
0658 1400357666 31.8036
0659 1400360107 31.7245
0660 1400362548 31.2342
0661 1400364990 31.4264
0662 1400367431 31.6105
0663 1400369873 31.1846
0664 1400372314 31.1682
0665 1400374755 31.8086
0666 1400377197 32.2497
0667 1400379638 32.2586
0668 1400382080 31.1361
0669 1400384521 31.5631
0670 1400386962 34.3165
0671 1400389404 33.0555
0672 1400391845 31.4715
0673 1400394287 31.1514
0674 1400396728 31.2523
0675 1400399169 31.9935
0676 1400401611 31.3612
0677 1400404052 31.6999
0678 1400406494 31.9506
0679 1400408935 30.8828
0680 1400411376 31.6639
0681 1400413818 34.2353
0682 1400416259 31.5682
0683 1400418701 30.7378
0684 1400421142 31.1326
0685 1400423583 31.0121
0686 1400426025 31.0959
0687 1400428466 31.3183
0688 1400430908 30.8490
0689 1400433349 30.6591
0690 1400435791 30.9313
0691 1400438232 30.3830
0692 1400440673 30.5956
0693 1400443115 31.3126
0694 1400445556 30.8634
0695 1400447998 30.8612
0696 1400450439 31.1067
0697 1400452880 30.9835
0698 1400455322 30.6757
0699 1400457763 30.7849
0700 1400460205 30.8656
0701 1400462646 30.8284
0702 1400465087 32.1778
0703 1400467529 32.4743
0704 1400469970 30.9707
0705 1400472412 31.4018
0706 1400474853 33.5039
0707 1400477294 31.0953
0708 1400479736 30.5677
0709 1400482177 30.9898
0710 1400484619 30.8901
0711 1400487060 31.0459
0712 1400489501 31.2502
0713 1400491943 30.6183
0714 1400494384 31.2469
0715 1400496826 32.2072
0716 1400499267 31.7004
0717 1400501708 31.0083
0718 1400504150 31.6293
0719 1400506591 31.1347
0720 1400509033 30.4806
0721 1400511474 30.8752
0722 1400513916 30.6316
0723 1400516357 30.8043
0724 1400518798 31.4058
0725 1400521240 31.4168
0726 1400523681 30.9601
0727 1400526123 32.3646
0728 1400528564 31.7181
0729 1400531005 31.3947
0730 1400533447 32.4661
0731 1400535888 33.6100
0732 1400538330 31.8317
0733 1400540771 31.6813
0734 1400543212 32.1321
0735 1400545654 30.8624
0736 1400548095 31.1064
0737 1400550537 31.7983
0738 1400552978 31.3999
0739 1400555419 31.2629
0740 1400557861 31.8485
0741 1400560302 31.2186
0742 1400562744 31.2682
0743 1400565185 31.2751
0744 1400567626 31.3204
0745 1400570068 31.1843
0746 1400572509 31.8208
0747 1400574951 31.1886
0748 1400577392 31.3029
0749 1400579833 31.5293
0750 1400582275 31.4166
0751 1400584716 31.7042
0752 1400587158 35.4468
0753 1400589599 32.6306
0754 1400592041 31.4367
0755 1400594482 34.2187
0756 1400596923 35.4709
0757 1400599365 31.5646
0758 1400601806 31.7098
0759 1400604248 31.7556
0760 1400606689 31.2461
0761 1400609130 31.8984
0762 1400611572 32.0915
0763 1400614013 31.6418
0764 1400616455 31.5021
0765 1400618896 31.8332
0766 1400621337 31.6721
0767 1400623779 31.8487
0768 1400626220 32.5931
0769 1400628662 32.1333
0770 1400631103 31.8874
0771 1400633544 31.7684
0772 1400635986 31.7070
0773 1400638427 31.6883
0774 1400640869 33.1743
0775 1400643310 32.0187
0776 1400645751 31.9681
0777 1400648193 32.9402
0778 1400650634 32.1170
0779 1400653076 31.7240
0780 1400655517 32.1325
0781 1400657958 32.1632
0782 1400660400 31.4887
0783 1400662841 31.9753
0784 1400665283 32.3740
0785 1400667724 31.6461
0786 1400670166 32.3753
0787 1400672607 37.6223
0788 1400675048 46.3884
0789 1400677490 33.7799
0790 1400679931 32.2213
0791 1400682373 31.3446
0792 1400684814 31.9319
0793 1400687255 33.0174
0794 1400689697 31.8258
0795 1400692138 36.7135
0796 1400694580 41.5116
0797 1400697021 34.5650
0798 1400699462 31.3819
0799 1400701904 31.5881
0800 1400704345 31.7586
0801 1400706787 32.1258
0802 1400709228 32.4690
0803 1400711669 31.6053
0804 1400714111 31.7691
0805 1400716552 35.1001
0806 1400718994 33.1501
0807 1400721435 31.4284
0808 1400723876 32.1006
0809 1400726318 31.6656
0810 1400728759 31.8287
0811 1400731201 32.1315
0812 1400733642 31.7794
0813 1400736083 31.4440
0814 1400738525 31.3272
0815 1400740966 31.7682
0816 1400743408 31.3425
0817 1400745849 32.0476
0818 1400748291 32.0702
0819 1400750732 31.1110
0820 1400753173 31.4992
0821 1400755615 31.2072
0822 1400758056 31.1716
0823 1400760498 31.3311
0824 1400762939 31.4303
0825 1400765380 31.3639
0826 1400767822 33.0584
0827 1400770263 32.6188
0828 1400772705 30.8619
0829 1400775146 30.6960
0830 1400777587 32.9650
0831 1400780029 31.5252
0832 1400782470 30.9510
0833 1400784912 31.2358
0834 1400787353 31.6245
0835 1400789794 30.8994
0836 1400792236 31.1803
0837 1400794677 30.8948
0838 1400797119 30.3090
0839 1400799560 31.2552
0840 1400802001 30.9287
0841 1400804443 30.0785
0842 1400806884 30.3621
0843 1400809326 30.1608
0844 1400811767 29.5829
0845 1400814208 30.5133
0846 1400816650 30.2358
0847 1400819091 29.7121
0848 1400821533 31.0695
0849 1400823974 32.7429
0850 1400826416 29.8476
0851 1400828857 30.1354
0852 1400831298 29.9267
0853 1400833740 29.0225
0854 1400836181 29.1401
0855 1400838623 30.0838
0856 1400841064 29.0608
0857 1400843505 29.0151
0858 1400845947 29.2713
0859 1400848388 28.6641
0860 1400850830 28.6143
0861 1400853271 28.8308
0862 1400855712 28.6854
0863 1400858154 28.3189
0864 1400860595 28.1881
0865 1400863037 27.9684
0866 1400865478 27.6447
0867 1400867919 27.7724
0868 1400870361 27.8199
0869 1400872802 27.6181
0870 1400875244 27.7323
0871 1400877685 27.7488
0872 1400880126 27.1173
0873 1400882568 27.1956
0874 1400885009 27.9187
0875 1400887451 32.2191
0876 1400889892 29.2862
0877 1400892333 27.3265
0878 1400894775 26.4906
0879 1400897216 26.7227
0880 1400899658 27.6085
0881 1400902099 25.9845
0882 1400904541 25.7994
0883 1400906982 25.7308
0884 1400909423 25.4024
0885 1400911865 25.3449
0886 1400914306 25.4671
0887 1400916748 25.0948
0888 1400919189 25.0207
0889 1400921630 25.3125
0890 1400924072 25.0567
0891 1400926513 25.2565
0892 1400928955 25.3637
0893 1400931396 24.3478
0894 1400933837 23.9946
0895 1400936279 24.0284
0896 1400938720 23.7002
0897 1400941162 23.7089
0898 1400943603 24.3053
0899 1400946044 23.6110
0900 1400948486 23.1330
0901 1400950927 23.6191
0902 1400953369 23.1072
0903 1400955810 22.4714
0904 1400958251 22.9363
0905 1400960693 23.4676
0906 1400963134 22.1867
0907 1400965576 22.7991
0908 1400968017 21.8672
0909 1400970458 21.6029
0910 1400972900 21.4848
0911 1400975341 21.6646
0912 1400977783 21.0215
0913 1400980224 21.0234
0914 1400982666 20.5027
0915 1400985107 20.3469
0916 1400987548 20.1404
0917 1400989990 20.0585
0918 1400992431 19.7661
0919 1400994873 19.8631
0920 1400997314 19.9097
0921 1400999755 19.5113
0922 1401002197 19.2196
0923 1401004638 19.2277
0924 1401007080 18.7010
0925 1401009521 18.8912
0926 1401011962 18.9863
0927 1401014404 18.2529
0928 1401016845 18.0339
0929 1401019287 18.2777
0930 1401021728 18.1984
0931 1401024169 17.4269
0932 1401026611 17.4768
0933 1401029052 17.3783
0934 1401031494 16.9557
0935 1401033935 16.6509
0936 1401036376 16.3534
0937 1401038818 16.2386
0938 1401041259 16.2215
0939 1401043701 16.3099
0940 1401046142 15.9966
0941 1401048583 15.6159
0942 1401051025 15.4985
0943 1401053466 15.1275
0944 1401055908 14.9858
0945 1401058349 14.9153
0946 1401060791 14.6935
0947 1401063232 14.6376
0948 1401065673 14.6899
0949 1401068115 14.3668
0950 1401070556 14.2582
0951 1401072998 14.0997
0952 1401075439 13.6933
0953 1401077880 13.5023
0954 1401080322 13.9411
0955 1401082763 13.7990
0956 1401085205 13.3553
0957 1401087646 14.1329
0958 1401090087 12.9783
0959 1401092529 12.5565
0960 1401094970 12.5748
0961 1401097412 12.4291
0962 1401099853 12.0795
0963 1401102294 11.9503
0964 1401104736 11.8207
0965 1401107177 11.6097
0966 1401109619 11.5168
0967 1401112060 11.4240
0968 1401114501 11.1855
0969 1401116943 11.0070
0970 1401119384 10.9278
0971 1401121826 10.8582
0972 1401124267 10.7576
0973 1401126708 10.7687
0974 1401129150 10.4731
0975 1401131591 10.3885
0976 1401134033 10.5569
0977 1401136474 10.0026
0978 1401138916 9.7433
0979 1401141357 9.8886
0980 1401143798 9.6282
0981 1401146240 9.4263
0982 1401148681 9.4059
0983 1401151123 9.2150
0984 1401153564 9.0399
0985 1401156005 8.9606
0986 1401158447 8.8538
0987 1401160888 8.6823
0988 1401163330 8.6463
0989 1401165771 8.4270
0990 1401168212 8.3364
0991 1401170654 8.3779
0992 1401173095 8.4319
0993 1401175537 8.1654
0994 1401177978 8.1867
0995 1401180419 8.0963
0996 1401182861 7.9486
0997 1401185302 7.9459
0998 1401187744 8.3457
0999 1401190185 7.7759
1000 1401192626 7.6645
1001 1401195068 7.8170
1002 1401197509 10.5947
1003 1401199951 8.8085
1004 1401202392 7.7354
1005 1401204833 7.3132
1006 1401207275 7.1105
1007 1401209716 7.0460
1008 1401212158 7.0807
1009 1401214599 7.2794
1010 1401217041 6.9266
1011 1401219482 6.8460
1012 1401221923 6.8865
1013 1401224365 6.8386
1014 1401226806 6.8078
1015 1401229248 6.7171
1016 1401231689 6.6469
1017 1401234130 6.6300
1018 1401236572 6.5971
1019 1401239013 6.6376
1020 1401241455 6.5751
1021 1401243896 6.5676
1022 1401246337 6.5710
1023 1401248779 6.7106
