# File: 20-05-31T224429.ast
# NOTEA     = None Attached.  RTLSDR Dongle Test
# NOTEB     = Spectral Integration
# OBSERVER  = Science Aficionado
# DEVICE    = rtlsdr=0
# DATADIR   = ../data/
# SITE      = None Attached.  RTLSDR Dongle Test
# CITY      = Green Bank
# REGION    = West Virginia
# COUNTRY   = US
# TELTYPE   = Bubble Wrap  Horn
# FRAME     = TOPO
# GAIN1     = 49.0
# GAIN2     = 11.0
# GAIN3     = 11.0
# GAIN4     = 0.0
# Count     = 10000
# CenterFreq= 1400000000.0
# Bandwidth = 2500000.0
# Duration  = 41.959334
# DeltaX    = 5859.375
# TSYS      = 200.0
# TRX       = 100.0
# TRMS      = 2.0
# TINT      = 1.0
# KPERC     = 100.0
# GAINFACT  = 1.0
# BUNIT     = Counts
# NCHAN     = 1024
# NSPEC     = 1
# NTIME     = 0
# NSAMPLES  = 0
# EPEAK     = 4.10875183718
# ERMS      = 0.995973393526
# EMJD      = 58568.808999981004 
# REFCHAN   = 512.0
# REFSAMPL  = 256.0
# NAVE      = 100
# NMEDIAN   = 1024
# Fft_rate  = 5000
# UTC       = 2020-05-31 22:44:29.080793
# SECONDS   =       0.0000000000 
# LST       = 10:04:39.700
# AZ        = 180.0
# EL        = 90.0
# TELLON    = -79:50:22.920
# TELLAT    = +38:25:59.160
# RA        = 10:02:14.600
# DEC       = +38:37:37.600
# GALLON    = 183:52:37.20
# GALLAT    = +53:01:34.20
# ALT_SUN   = +19:43:55.8
# AZ_SUN    = +283:02:35.6
# ETAA      = 0.8
# ETAB      = 0.99
# POLANGLE  = 0.0
# TELSIZEAM = 1.0
# TELSIZEBM = 1.0
# AST_VERS  = 05.01
0000 1398751220 6.6670
0001 1398753662 6.5670
0002 1398756103 6.7348
0003 1398758544 6.8424
0004 1398760986 6.7881
0005 1398763427 6.7855
0006 1398765869 6.6492
0007 1398768310 6.5589
0008 1398770751 6.5857
0009 1398773193 6.7258
0010 1398775634 6.8185
0011 1398778076 6.8009
0012 1398780517 6.7317
0013 1398782958 6.7003
0014 1398785400 6.8043
0015 1398787841 7.1175
0016 1398790283 6.9712
0017 1398792724 7.0229
0018 1398795166 7.3481
0019 1398797607 10.7674
0020 1398800048 8.3115
0021 1398802490 7.1541
0022 1398804931 7.1957
0023 1398807373 7.2033
0024 1398809814 7.3063
0025 1398812255 7.3756
0026 1398814697 7.4229
0027 1398817138 7.4982
0028 1398819580 7.6216
0029 1398822021 7.7264
0030 1398824462 7.7147
0031 1398826904 7.7867
0032 1398829345 7.7520
0033 1398831787 7.8911
0034 1398834228 8.1105
0035 1398836669 8.3645
0036 1398839111 8.1517
0037 1398841552 8.2975
0038 1398843994 8.3142
0039 1398846435 8.4905
0040 1398848876 8.6802
0041 1398851318 8.6486
0042 1398853759 8.7576
0043 1398856201 8.8464
0044 1398858642 9.0356
0045 1398861083 8.9781
0046 1398863525 9.0998
0047 1398865966 9.3574
0048 1398868408 9.4422
0049 1398870849 9.6238
0050 1398873291 9.7897
0051 1398875732 9.8095
0052 1398878173 9.9910
0053 1398880615 10.1588
0054 1398883056 10.1602
0055 1398885498 10.3738
0056 1398887939 10.9372
0057 1398890380 10.7149
0058 1398892822 10.6749
0059 1398895263 11.5823
0060 1398897705 11.6582
0061 1398900146 11.2830
0062 1398902587 11.2421
0063 1398905029 11.4309
0064 1398907470 11.6527
0065 1398909912 11.8490
0066 1398912353 12.2123
0067 1398914794 12.9242
0068 1398917236 12.3821
0069 1398919677 12.5228
0070 1398922119 12.5612
0071 1398924560 12.8031
0072 1398927001 13.0768
0073 1398929443 13.1416
0074 1398931884 13.1716
0075 1398934326 13.2611
0076 1398936767 13.4456
0077 1398939208 13.6688
0078 1398941650 14.0470
0079 1398944091 13.9695
0080 1398946533 14.0001
0081 1398948974 14.4426
0082 1398951416 14.4575
0083 1398953857 14.5179
0084 1398956298 15.4795
0085 1398958740 15.3621
0086 1398961181 15.0924
0087 1398963623 15.4499
0088 1398966064 15.5594
0089 1398968505 15.6761
0090 1398970947 16.1396
0091 1398973388 16.2737
0092 1398975830 16.1639
0093 1398978271 16.4055
0094 1398980712 16.6490
0095 1398983154 16.5722
0096 1398985595 16.9923
0097 1398988037 17.6637
0098 1398990478 17.1310
0099 1398992919 17.4130
0100 1398995361 17.5460
0101 1398997802 17.3807
0102 1399000244 17.7862
0103 1399002685 18.4222
0104 1399005126 18.3108
0105 1399007568 18.5206
0106 1399010009 19.0373
0107 1399012451 18.6722
0108 1399014892 18.9715
0109 1399017333 20.5278
0110 1399019775 19.7999
0111 1399022216 19.4044
0112 1399024658 20.1113
0113 1399027099 19.8287
0114 1399029541 19.9857
0115 1399031982 20.0692
0116 1399034423 20.3641
0117 1399036865 20.4926
0118 1399039306 20.8718
0119 1399041748 21.0042
0120 1399044189 20.8697
0121 1399046630 21.2129
0122 1399049072 21.2658
0123 1399051513 21.1210
0124 1399053955 21.8901
0125 1399056396 22.2357
0126 1399058837 21.7502
0127 1399061279 22.3247
0128 1399063720 22.7179
0129 1399066162 22.1655
0130 1399068603 22.6018
0131 1399071044 23.1635
0132 1399073486 22.8515
0133 1399075927 23.1292
0134 1399078369 24.1785
0135 1399080810 23.3133
0136 1399083251 23.3589
0137 1399085693 23.9009
0138 1399088134 24.1990
0139 1399090576 23.8307
0140 1399093017 24.7003
0141 1399095458 25.3055
0142 1399097900 24.4135
0143 1399100341 24.6848
0144 1399102783 24.5007
0145 1399105224 24.6841
0146 1399107666 24.7496
0147 1399110107 24.9609
0148 1399112548 25.1081
0149 1399114990 25.0904
0150 1399117431 25.4280
0151 1399119873 25.6473
0152 1399122314 25.5483
0153 1399124755 25.5732
0154 1399127197 25.6840
0155 1399129638 26.1334
0156 1399132080 26.3035
0157 1399134521 28.2440
0158 1399136962 28.7691
0159 1399139404 28.0627
0160 1399141845 26.7184
0161 1399144287 26.5499
0162 1399146728 27.1651
0163 1399149169 27.1677
0164 1399151611 27.1661
0165 1399154052 27.6442
0166 1399156494 27.3984
0167 1399158935 27.1602
0168 1399161376 27.4643
0169 1399163818 27.4069
0170 1399166259 27.5257
0171 1399168701 27.8481
0172 1399171142 27.6638
0173 1399173583 27.8437
0174 1399176025 28.1175
0175 1399178466 28.1286
0176 1399180908 27.9690
0177 1399183349 28.6443
0178 1399185791 28.3718
0179 1399188232 28.6281
0180 1399190673 30.0689
0181 1399193115 29.0470
0182 1399195556 28.2210
0183 1399197998 29.5238
0184 1399200439 30.6159
0185 1399202880 28.8332
0186 1399205322 28.9766
0187 1399207763 30.0364
0188 1399210205 29.2369
0189 1399212646 29.1895
0190 1399215087 29.4264
0191 1399217529 28.9657
0192 1399219970 29.4636
0193 1399222412 29.8693
0194 1399224853 29.2930
0195 1399227294 29.2687
0196 1399229736 29.6939
0197 1399232177 29.4440
0198 1399234619 29.4213
0199 1399237060 29.6590
0200 1399239501 29.7480
0201 1399241943 30.2259
0202 1399244384 31.0142
0203 1399246826 30.3571
0204 1399249267 29.7675
0205 1399251708 30.0107
0206 1399254150 29.8733
0207 1399256591 29.8136
0208 1399259033 30.7774
0209 1399261474 30.6843
0210 1399263916 30.1503
0211 1399266357 30.0813
0212 1399268798 30.5033
0213 1399271240 30.5384
0214 1399273681 30.9138
0215 1399276123 31.0183
0216 1399278564 30.1819
0217 1399281005 30.0758
0218 1399283447 29.8159
0219 1399285888 30.5612
0220 1399288330 31.3460
0221 1399290771 30.1884
0222 1399293212 30.1318
0223 1399295654 30.4190
0224 1399298095 30.7549
0225 1399300537 30.2309
0226 1399302978 30.2633
0227 1399305419 31.5449
0228 1399307861 31.2823
0229 1399310302 30.6015
0230 1399312744 32.0630
0231 1399315185 30.7175
0232 1399317626 30.3301
0233 1399320068 31.2589
0234 1399322509 31.3535
0235 1399324951 30.1912
0236 1399327392 30.9866
0237 1399329833 34.9330
0238 1399332275 32.2167
0239 1399334716 30.8058
0240 1399337158 30.8997
0241 1399339599 30.6903
0242 1399342041 30.4805
0243 1399344482 30.5491
0244 1399346923 30.0077
0245 1399349365 30.3520
0246 1399351806 30.9374
0247 1399354248 30.2585
0248 1399356689 29.9458
0249 1399359130 30.2969
0250 1399361572 30.2608
0251 1399364013 31.3521
0252 1399366455 31.2231
0253 1399368896 31.3044
0254 1399371337 31.0273
0255 1399373779 31.4813
0256 1399376220 30.7087
0257 1399378662 30.6442
0258 1399381103 31.6584
0259 1399383544 30.6419
0260 1399385986 30.3406
0261 1399388427 30.8166
0262 1399390869 30.6936
0263 1399393310 30.3194
0264 1399395751 30.4010
0265 1399398193 30.2238
0266 1399400634 30.7189
0267 1399403076 30.5655
0268 1399405517 30.6862
0269 1399407958 30.3177
0270 1399410400 30.5770
0271 1399412841 30.8264
0272 1399415283 30.0695
0273 1399417724 30.4931
0274 1399420166 30.4291
0275 1399422607 30.1627
0276 1399425048 30.5640
0277 1399427490 30.6560
0278 1399429931 30.5776
0279 1399432373 31.0870
0280 1399434814 31.0521
0281 1399437255 30.0494
0282 1399439697 30.0544
0283 1399442138 31.4790
0284 1399444580 30.3245
0285 1399447021 29.8009
0286 1399449462 30.7519
0287 1399451904 30.7339
0288 1399454345 29.8919
0289 1399456787 30.3489
0290 1399459228 30.1610
0291 1399461669 29.8789
0292 1399464111 30.1748
0293 1399466552 29.9735
0294 1399468994 29.5533
0295 1399471435 30.5490
0296 1399473876 30.8216
0297 1399476318 30.1903
0298 1399478759 30.1593
0299 1399481201 30.2344
0300 1399483642 29.7782
0301 1399486083 30.2641
0302 1399488525 30.4997
0303 1399490966 30.0900
0304 1399493408 30.5371
0305 1399495849 30.7322
0306 1399498291 30.4310
0307 1399500732 31.3876
0308 1399503173 31.1513
0309 1399505615 29.9174
0310 1399508056 29.9454
0311 1399510498 30.2925
0312 1399512939 30.0605
0313 1399515380 30.2835
0314 1399517822 30.0936
0315 1399520263 29.8731
0316 1399522705 29.8932
0317 1399525146 30.9452
0318 1399527587 30.5538
0319 1399530029 30.3403
0320 1399532470 30.4689
0321 1399534912 30.4042
0322 1399537353 30.1431
0323 1399539794 30.9979
0324 1399542236 30.7177
0325 1399544677 30.2619
0326 1399547119 30.2988
0327 1399549560 30.4157
0328 1399552001 30.2775
0329 1399554443 30.9784
0330 1399556884 31.8443
0331 1399559326 30.5982
0332 1399561767 31.1432
0333 1399564208 32.8459
0334 1399566650 30.5242
0335 1399569091 30.5685
0336 1399571533 30.9909
0337 1399573974 30.1754
0338 1399576416 30.3480
0339 1399578857 31.0036
0340 1399581298 30.4705
0341 1399583740 30.2836
0342 1399586181 31.6345
0343 1399588623 31.7153
0344 1399591064 30.9357
0345 1399593505 31.6566
0346 1399595947 31.1051
0347 1399598388 30.3384
0348 1399600830 30.5449
0349 1399603271 30.7784
0350 1399605712 31.2683
0351 1399608154 30.7422
0352 1399610595 30.4625
0353 1399613037 30.6174
0354 1399615478 31.6407
0355 1399617919 31.4601
0356 1399620361 31.5265
0357 1399622802 32.3520
0358 1399625244 33.0920
0359 1399627685 31.1699
0360 1399630126 31.5145
0361 1399632568 31.8266
0362 1399635009 30.8571
0363 1399637451 31.1890
0364 1399639892 31.4655
0365 1399642333 31.4182
0366 1399644775 31.3481
0367 1399647216 31.9516
0368 1399649658 31.4671
0369 1399652099 32.1200
0370 1399654541 31.6998
0371 1399656982 31.7628
0372 1399659423 31.6772
0373 1399661865 31.8458
0374 1399664306 31.5261
0375 1399666748 31.5204
0376 1399669189 32.1605
0377 1399671630 31.8624
0378 1399674072 31.7709
0379 1399676513 35.4510
0380 1399678955 34.2580
0381 1399681396 32.6802
0382 1399683837 34.3275
0383 1399686279 34.5341
0384 1399688720 32.1118
0385 1399691162 32.1863
0386 1399693603 33.0556
0387 1399696044 32.1780
0388 1399698486 32.4783
0389 1399700927 32.9457
0390 1399703369 32.2780
0391 1399705810 32.2391
0392 1399708251 32.5569
0393 1399710693 32.5957
0394 1399713134 33.0598
0395 1399715576 33.3268
0396 1399718017 33.4734
0397 1399720458 34.3434
0398 1399722900 33.8727
0399 1399725341 33.2837
0400 1399727783 33.1372
0401 1399730224 33.3502
0402 1399732666 33.1359
0403 1399735107 33.1220
0404 1399737548 33.3555
0405 1399739990 33.3755
0406 1399742431 33.5114
0407 1399744873 35.3481
0408 1399747314 35.3042
0409 1399749755 38.6197
0410 1399752197 36.6237
0411 1399754638 34.0306
0412 1399757080 33.9420
0413 1399759521 34.3652
0414 1399761962 33.7051
0415 1399764404 33.6979
0416 1399766845 34.0372
0417 1399769287 34.2512
0418 1399771728 33.8210
0419 1399774169 34.3739
0420 1399776611 35.3081
0421 1399779052 34.5073
0422 1399781494 34.1670
0423 1399783935 34.1781
0424 1399786376 34.6278
0425 1399788818 34.8747
0426 1399791259 36.7158
0427 1399793701 40.2277
0428 1399796142 35.3550
0429 1399798583 35.7909
0430 1399801025 35.3084
0431 1399803466 34.9758
0432 1399805908 36.1508
0433 1399808349 36.4947
0434 1399810791 35.3942
0435 1399813232 35.4477
0436 1399815673 35.4631
0437 1399818115 35.1709
0438 1399820556 35.7312
0439 1399822998 35.7752
0440 1399825439 35.0175
0441 1399827880 35.3719
0442 1399830322 36.1173
0443 1399832763 35.2201
0444 1399835205 35.5055
0445 1399837646 35.6044
0446 1399840087 36.1196
0447 1399842529 36.6959
0448 1399844970 37.5248
0449 1399847412 36.4816
0450 1399849853 36.0320
0451 1399852294 36.2934
0452 1399854736 35.5831
0453 1399857177 36.7944
0454 1399859619 37.8239
0455 1399862060 36.4207
0456 1399864501 36.2822
0457 1399866943 39.3249
0458 1399869384 37.0945
0459 1399871826 37.2239
0460 1399874267 36.9590
0461 1399876708 36.6548
0462 1399879150 36.7266
0463 1399881591 36.8823
0464 1399884033 36.9485
0465 1399886474 37.1387
0466 1399888916 37.6258
0467 1399891357 37.1663
0468 1399893798 37.1621
0469 1399896240 62.0242
0470 1399898681 69.2340
0471 1399901123 38.6108
0472 1399903564 37.6089
0473 1399906005 37.4906
0474 1399908447 37.4297
0475 1399910888 37.1723
0476 1399913330 38.9965
0477 1399915771 38.4109
0478 1399918212 38.1693
0479 1399920654 38.3526
0480 1399923095 38.1656
0481 1399925537 37.6465
0482 1399927978 38.7124
0483 1399930419 38.1436
0484 1399932861 38.8445
0485 1399935302 38.9521
0486 1399937744 38.4947
0487 1399940185 38.4374
0488 1399942626 38.6146
0489 1399945068 38.4121
0490 1399947509 38.5913
0491 1399949951 38.8119
0492 1399952392 38.7931
0493 1399954833 38.9735
0494 1399957275 39.5860
0495 1399959716 39.4217
0496 1399962158 38.8308
0497 1399964599 39.6586
0498 1399967041 39.7544
0499 1399969482 39.9246
0500 1399971923 40.1842
0501 1399974365 46.3057
0502 1399976806 50.8959
0503 1399979248 64.9001
0504 1399981689 47.9314
0505 1399984130 42.7780
0506 1399986572 67.6404
0507 1399989013 92.3965
0508 1399991455 63.8191
0509 1399993896 57.0938
0510 1399996337 434.8131
0511 1399998779 697.9620
0512 1400001220 76.6031
0513 1400003662 48.3129
0514 1400006103 45.0566
0515 1400008544 42.4119
0516 1400010986 43.3624
0517 1400013427 46.4969
0518 1400015869 46.8025
0519 1400018310 40.4932
0520 1400020751 44.5731
0521 1400023193 47.2683
0522 1400025634 40.7118
0523 1400028076 40.2303
0524 1400030517 39.8169
0525 1400032958 40.2714
0526 1400035400 39.5687
0527 1400037841 39.6341
0528 1400040283 41.0574
0529 1400042724 39.7914
0530 1400045166 38.8680
0531 1400047607 40.8643
0532 1400050048 40.0456
0533 1400052490 38.1897
0534 1400054931 38.8472
0535 1400057373 38.7301
0536 1400059814 38.3220
0537 1400062255 37.7230
0538 1400064697 37.5920
0539 1400067138 37.8246
0540 1400069580 37.9939
0541 1400072021 38.6563
0542 1400074462 37.8751
0543 1400076904 37.9379
0544 1400079345 37.5846
0545 1400081787 37.8519
0546 1400084228 38.5198
0547 1400086669 40.9623
0548 1400089111 38.1287
0549 1400091552 37.3212
0550 1400093994 37.9457
0551 1400096435 38.0224
0552 1400098876 37.1994
0553 1400101318 37.5288
0554 1400103759 37.5652
0555 1400106201 37.7987
0556 1400108642 42.5225
0557 1400111083 40.3277
0558 1400113525 37.2339
0559 1400115966 37.4140
0560 1400118408 37.5054
0561 1400120849 36.9253
0562 1400123291 37.3872
0563 1400125732 37.3008
0564 1400128173 37.1145
0565 1400130615 36.6939
0566 1400133056 36.9687
0567 1400135498 36.6017
0568 1400137939 36.2173
0569 1400140380 36.1082
0570 1400142822 36.4100
0571 1400145263 36.6898
0572 1400147705 36.9658
0573 1400150146 36.5881
0574 1400152587 36.0491
0575 1400155029 37.7067
0576 1400157470 37.0451
0577 1400159912 36.8349
0578 1400162353 38.2467
0579 1400164794 37.1445
0580 1400167236 36.6973
0581 1400169677 36.6290
0582 1400172119 36.4011
0583 1400174560 35.8135
0584 1400177001 35.7991
0585 1400179443 35.6489
0586 1400181884 35.8056
0587 1400184326 35.7488
0588 1400186767 37.5314
0589 1400189208 36.2653
0590 1400191650 36.0943
0591 1400194091 36.2177
0592 1400196533 35.4153
0593 1400198974 35.3747
0594 1400201416 35.7724
0595 1400203857 35.3632
0596 1400206298 35.3490
0597 1400208740 35.9965
0598 1400211181 35.6246
0599 1400213623 35.4002
0600 1400216064 35.8118
0601 1400218505 35.3135
0602 1400220947 34.7880
0603 1400223388 35.4254
0604 1400225830 34.8887
0605 1400228271 34.5927
0606 1400230712 35.1256
0607 1400233154 34.9138
0608 1400235595 34.8884
0609 1400238037 34.2437
0610 1400240478 34.6798
0611 1400242919 34.3347
0612 1400245361 34.4044
0613 1400247802 34.4690
0614 1400250244 34.0283
0615 1400252685 34.7531
0616 1400255126 34.7913
0617 1400257568 35.5252
0618 1400260009 38.7933
0619 1400262451 34.5107
0620 1400264892 33.5623
0621 1400267333 33.8336
0622 1400269775 34.0897
0623 1400272216 33.6095
0624 1400274658 33.2987
0625 1400277099 34.6389
0626 1400279541 34.1676
0627 1400281982 34.2389
0628 1400284423 35.8952
0629 1400286865 34.5225
0630 1400289306 33.7212
0631 1400291748 35.5850
0632 1400294189 34.3745
0633 1400296630 33.5612
0634 1400299072 33.6249
0635 1400301513 33.3156
0636 1400303955 34.9792
0637 1400306396 33.7887
0638 1400308837 33.2479
0639 1400311279 33.0233
0640 1400313720 33.5047
0641 1400316162 33.1672
0642 1400318603 33.1660
0643 1400321044 33.1200
0644 1400323486 33.8042
0645 1400325927 32.7073
0646 1400328369 33.2603
0647 1400330810 33.2309
0648 1400333251 32.7406
0649 1400335693 32.8091
0650 1400338134 32.9145
0651 1400340576 32.9763
0652 1400343017 34.1378
0653 1400345458 33.9390
0654 1400347900 32.5774
0655 1400350341 32.5645
0656 1400352783 33.0187
0657 1400355224 32.5264
0658 1400357666 32.3493
0659 1400360107 32.3697
0660 1400362548 32.5872
0661 1400364990 32.2224
0662 1400367431 32.4429
0663 1400369873 32.1334
0664 1400372314 31.9900
0665 1400374755 32.6060
0666 1400377197 33.1781
0667 1400379638 33.6957
0668 1400382080 32.1605
0669 1400384521 32.0306
0670 1400386962 32.6813
0671 1400389404 32.8950
0672 1400391845 32.4850
0673 1400394287 31.8443
0674 1400396728 32.0358
0675 1400399169 32.4488
0676 1400401611 32.1550
0677 1400404052 32.1756
0678 1400406494 32.5135
0679 1400408935 31.8194
0680 1400411376 32.1900
0681 1400413818 34.1818
0682 1400416259 32.4974
0683 1400418701 31.5914
0684 1400421142 31.9631
0685 1400423583 31.8411
0686 1400426025 31.6229
0687 1400428466 31.8468
0688 1400430908 31.8048
0689 1400433349 31.2887
0690 1400435791 31.7209
0691 1400438232 31.4511
0692 1400440673 31.4397
0693 1400443115 31.9535
0694 1400445556 31.7506
0695 1400447998 31.6617
0696 1400450439 31.8149
0697 1400452880 31.6270
0698 1400455322 31.4699
0699 1400457763 31.8861
0700 1400460205 31.8323
0701 1400462646 31.2472
0702 1400465087 32.6029
0703 1400467529 32.5780
0704 1400469970 31.2191
0705 1400472412 32.2682
0706 1400474853 33.7895
0707 1400477294 31.8592
0708 1400479736 31.5323
0709 1400482177 31.6002
0710 1400484619 31.4424
0711 1400487060 31.7188
0712 1400489501 31.7376
0713 1400491943 31.1657
0714 1400494384 31.7502
0715 1400496826 32.4071
0716 1400499267 32.0913
0717 1400501708 31.6375
0718 1400504150 31.9159
0719 1400506591 31.8514
0720 1400509033 31.4888
0721 1400511474 31.3910
0722 1400513916 31.3618
0723 1400516357 31.4544
0724 1400518798 31.7151
0725 1400521240 31.8955
0726 1400523681 31.8276
0727 1400526123 32.6224
0728 1400528564 32.2266
0729 1400531005 31.6354
0730 1400533447 32.8429
0731 1400535888 33.3521
0732 1400538330 32.3188
0733 1400540771 31.7803
0734 1400543212 32.6829
0735 1400545654 31.3081
0736 1400548095 31.6942
0737 1400550537 32.0894
0738 1400552978 31.2395
0739 1400555419 31.5462
0740 1400557861 32.4712
0741 1400560302 31.6293
0742 1400562744 31.6077
0743 1400565185 31.8925
0744 1400567626 31.9034
0745 1400570068 32.1139
0746 1400572509 31.6470
0747 1400574951 31.8461
0748 1400577392 31.7068
0749 1400579833 32.2421
0750 1400582275 32.0456
0751 1400584716 31.8907
0752 1400587158 33.4183
0753 1400589599 32.4595
0754 1400592041 31.6082
0755 1400594482 34.9526
0756 1400596923 35.4284
0757 1400599365 31.9987
0758 1400601806 31.8453
0759 1400604248 31.9673
0760 1400606689 31.9498
0761 1400609130 32.0194
0762 1400611572 32.1233
0763 1400614013 31.7543
0764 1400616455 32.2587
0765 1400618896 32.2295
0766 1400621337 32.0386
0767 1400623779 32.3374
0768 1400626220 32.9869
0769 1400628662 32.0023
0770 1400631103 32.0890
0771 1400633544 32.3488
0772 1400635986 32.1849
0773 1400638427 32.3632
0774 1400640869 33.1080
0775 1400643310 32.2440
0776 1400645751 32.4837
0777 1400648193 33.4171
0778 1400650634 32.3488
0779 1400653076 32.2509
0780 1400655517 32.5658
0781 1400657958 32.5164
0782 1400660400 32.2369
0783 1400662841 32.8597
0784 1400665283 32.6176
0785 1400667724 32.2166
0786 1400670166 33.1396
0787 1400672607 40.1309
0788 1400675048 50.7950
0789 1400677490 34.3055
0790 1400679931 32.7793
0791 1400682373 32.1692
0792 1400684814 32.2795
0793 1400687255 32.3700
0794 1400689697 32.9012
0795 1400692138 38.0419
0796 1400694580 41.0863
0797 1400697021 35.1537
0798 1400699462 32.3041
0799 1400701904 32.4798
0800 1400704345 32.0550
0801 1400706787 32.6183
0802 1400709228 32.8498
0803 1400711669 32.3296
0804 1400714111 32.6237
0805 1400716552 35.2765
0806 1400718994 33.7745
0807 1400721435 32.2330
0808 1400723876 33.0414
0809 1400726318 32.6061
0810 1400728759 32.5758
0811 1400731201 32.6869
0812 1400733642 32.7012
0813 1400736083 32.3476
0814 1400738525 32.4186
0815 1400740966 32.6175
0816 1400743408 32.3376
0817 1400745849 32.7363
0818 1400748291 33.1228
0819 1400750732 31.8937
0820 1400753173 31.8027
0821 1400755615 32.0327
0822 1400758056 31.9633
0823 1400760498 32.1287
0824 1400762939 32.0140
0825 1400765380 32.0816
0826 1400767822 34.0138
0827 1400770263 34.2430
0828 1400772705 31.9597
0829 1400775146 31.6951
0830 1400777587 33.3960
0831 1400780029 32.0364
0832 1400782470 31.8229
0833 1400784912 31.7825
0834 1400787353 32.1727
0835 1400789794 31.6554
0836 1400792236 31.6672
0837 1400794677 31.4503
0838 1400797119 31.3012
0839 1400799560 32.4493
0840 1400802001 31.3099
0841 1400804443 31.1596
0842 1400806884 31.2588
0843 1400809326 30.8035
0844 1400811767 30.7931
0845 1400814208 30.8960
0846 1400816650 30.8091
0847 1400819091 30.3109
0848 1400821533 30.9476
0849 1400823974 32.2244
0850 1400826416 30.4216
0851 1400828857 30.9708
0852 1400831298 30.4630
0853 1400833740 29.8009
0854 1400836181 29.8444
0855 1400838623 30.7808
0856 1400841064 29.8464
0857 1400843505 29.7559
0858 1400845947 29.3791
0859 1400848388 29.5345
0860 1400850830 29.2866
0861 1400853271 29.3513
0862 1400855712 29.0765
0863 1400858154 28.7990
0864 1400860595 28.7635
0865 1400863037 28.7042
0866 1400865478 28.6275
0867 1400867919 28.4577
0868 1400870361 28.1344
0869 1400872802 28.0828
0870 1400875244 28.1129
0871 1400877685 28.2817
0872 1400880126 27.8768
0873 1400882568 28.0501
0874 1400885009 27.7981
0875 1400887451 31.2602
0876 1400889892 29.2337
0877 1400892333 27.4061
0878 1400894775 27.0971
0879 1400897216 27.2592
0880 1400899658 27.5464
0881 1400902099 26.3940
0882 1400904541 26.4113
0883 1400906982 26.4684
0884 1400909423 25.8530
0885 1400911865 26.0506
0886 1400914306 25.9724
0887 1400916748 25.7403
0888 1400919189 25.2739
0889 1400921630 25.4533
0890 1400924072 25.2902
0891 1400926513 25.3745
0892 1400928955 25.6071
0893 1400931396 24.6743
0894 1400933837 24.2620
0895 1400936279 24.1532
0896 1400938720 24.0727
0897 1400941162 23.8132
0898 1400943603 24.4735
0899 1400946044 24.0644
0900 1400948486 23.6217
0901 1400950927 23.7420
0902 1400953369 23.0779
0903 1400955810 22.7260
0904 1400958251 23.2265
0905 1400960693 23.7475
0906 1400963134 22.8471
0907 1400965576 23.0649
0908 1400968017 22.1272
0909 1400970458 21.7365
0910 1400972900 21.6254
0911 1400975341 21.9037
0912 1400977783 21.5891
0913 1400980224 21.4438
0914 1400982666 20.9018
0915 1400985107 20.6170
0916 1400987548 20.5987
0917 1400989990 20.5141
0918 1400992431 20.1128
0919 1400994873 20.0371
0920 1400997314 19.9010
0921 1400999755 19.6072
0922 1401002197 19.4449
0923 1401004638 19.1399
0924 1401007080 18.8697
0925 1401009521 18.9320
0926 1401011962 19.0603
0927 1401014404 18.3532
0928 1401016845 18.3291
0929 1401019287 18.3672
0930 1401021728 18.3447
0931 1401024169 17.7402
0932 1401026611 17.7753
0933 1401029052 17.3191
0934 1401031494 16.8698
0935 1401033935 16.6628
0936 1401036376 16.6553
0937 1401038818 16.4955
0938 1401041259 16.3758
0939 1401043701 16.5438
0940 1401046142 15.9418
0941 1401048583 15.8878
0942 1401051025 15.4195
0943 1401053466 15.3428
0944 1401055908 15.1431
0945 1401058349 15.0695
0946 1401060791 14.7510
0947 1401063232 14.6987
0948 1401065673 14.8229
0949 1401068115 14.4593
0950 1401070556 14.1366
0951 1401072998 14.2517
0952 1401075439 13.9526
0953 1401077880 13.6357
0954 1401080322 13.8680
0955 1401082763 13.8884
0956 1401085205 13.2580
0957 1401087646 13.2563
0958 1401090087 12.9807
0959 1401092529 12.8384
0960 1401094970 12.5615
0961 1401097412 12.7110
0962 1401099853 12.3141
0963 1401102294 12.1024
0964 1401104736 11.8410
0965 1401107177 11.6416
0966 1401109619 11.4744
0967 1401112060 11.4190
0968 1401114501 11.1849
0969 1401116943 11.1635
0970 1401119384 10.9203
0971 1401121826 10.8582
0972 1401124267 10.7753
0973 1401126708 10.6883
0974 1401129150 10.4963
0975 1401131591 10.4703
0976 1401134033 10.6043
0977 1401136474 10.0224
0978 1401138916 9.7880
0979 1401141357 9.9782
0980 1401143798 9.6350
0981 1401146240 9.5578
0982 1401148681 9.5380
0983 1401151123 9.3348
0984 1401153564 9.1015
0985 1401156005 8.9617
0986 1401158447 8.8751
0987 1401160888 8.7908
0988 1401163330 8.7544
0989 1401165771 8.5794
0990 1401168212 8.4859
0991 1401170654 8.4195
0992 1401173095 8.4054
0993 1401175537 8.2756
0994 1401177978 8.2955
0995 1401180419 8.2108
0996 1401182861 7.9188
0997 1401185302 7.8549
0998 1401187744 8.2649
0999 1401190185 7.9111
1000 1401192626 7.7605
1001 1401195068 7.9909
1002 1401197509 11.3714
1003 1401199951 8.9176
1004 1401202392 7.7470
1005 1401204833 7.3690
1006 1401207275 7.1867
1007 1401209716 7.1118
1008 1401212158 7.1598
1009 1401214599 7.2271
1010 1401217041 7.0248
1011 1401219482 6.9357
1012 1401221923 6.9550
1013 1401224365 6.9415
1014 1401226806 6.8676
1015 1401229248 6.7929
1016 1401231689 6.7341
1017 1401234130 6.6549
1018 1401236572 6.5812
1019 1401239013 6.6657
1020 1401241455 6.6400
1021 1401243896 6.5666
1022 1401246337 6.6187
1023 1401248779 6.6273
