# File: 20-05-31T224840.ast
# NOTEA     = None Attached.  RTLSDR Dongle Test
# NOTEB     = Spectral Integration
# OBSERVER  = Science Aficionado
# DEVICE    = rtlsdr=0
# DATADIR   = ../data/
# SITE      = None Attached.  RTLSDR Dongle Test
# CITY      = Green Bank
# REGION    = West Virginia
# COUNTRY   = US
# TELTYPE   = Bubble Wrap  Horn
# FRAME     = TOPO
# GAIN1     = 49.0
# GAIN2     = 11.0
# GAIN3     = 11.0
# GAIN4     = 0.0
# Count     = 10000
# CenterFreq= 1400000000.0
# Bandwidth = 2500000.0
# Duration  = 41.95103
# DeltaX    = 5859.375
# TSYS      = 200.0
# TRX       = 100.0
# TRMS      = 2.0
# TINT      = 1.0
# KPERC     = 100.0
# GAINFACT  = 1.0
# BUNIT     = Counts
# NCHAN     = 1024
# NSPEC     = 1
# NTIME     = 0
# NSAMPLES  = 0
# EPEAK     = 4.10875183718
# ERMS      = 0.995973393526
# EMJD      = 58568.808999981004 
# REFCHAN   = 512.0
# REFSAMPL  = 256.0
# NAVE      = 100
# NMEDIAN   = 1024
# Fft_rate  = 5000
# UTC       = 2020-05-31 22:48:40.794031
# SECONDS   =       0.0000000000 
# LST       = 10:08:52.100
# AZ        = 180.0
# EL        = 90.0
# TELLON    = -79:50:22.920
# TELLAT    = +38:25:59.160
# RA        = 10:06:27.660
# DEC       = +38:37:44.700
# GALLON    = 183:44:19.40
# GALLAT    = +53:50:44.70
# ALT_SUN   = +18:56:06.2
# AZ_SUN    = +283:37:44.8
# ETAA      = 0.8
# ETAB      = 0.99
# POLANGLE  = 0.0
# TELSIZEAM = 1.0
# TELSIZEBM = 1.0
# AST_VERS  = 05.01
0000 1398751220 6.4280
0001 1398753662 6.3134
0002 1398756103 6.3843
0003 1398758544 6.4601
0004 1398760986 6.4362
0005 1398763427 6.5302
0006 1398765869 6.3729
0007 1398768310 6.2912
0008 1398770751 6.3449
0009 1398773193 6.4588
0010 1398775634 6.5460
0011 1398778076 6.5385
0012 1398780517 6.4831
0013 1398782958 6.5700
0014 1398785400 6.6002
0015 1398787841 6.8675
0016 1398790283 6.7933
0017 1398792724 6.7713
0018 1398795166 7.0867
0019 1398797607 10.3765
0020 1398800048 7.9827
0021 1398802490 6.9268
0022 1398804931 6.9201
0023 1398807373 6.9887
0024 1398809814 7.0366
0025 1398812255 7.1538
0026 1398814697 7.1205
0027 1398817138 7.1747
0028 1398819580 7.2354
0029 1398822021 7.4095
0030 1398824462 7.3473
0031 1398826904 7.4787
0032 1398829345 7.5192
0033 1398831787 7.5850
0034 1398834228 7.8678
0035 1398836669 8.0418
0036 1398839111 7.8045
0037 1398841552 7.9410
0038 1398843994 8.0621
0039 1398846435 8.0534
0040 1398848876 8.2421
0041 1398851318 8.2797
0042 1398853759 8.4493
0043 1398856201 8.5271
0044 1398858642 8.6583
0045 1398861083 8.6471
0046 1398863525 8.7584
0047 1398865966 8.9861
0048 1398868408 9.0988
0049 1398870849 9.2459
0050 1398873291 9.4419
0051 1398875732 9.4681
0052 1398878173 9.6097
0053 1398880615 9.7924
0054 1398883056 9.7006
0055 1398885498 10.0620
0056 1398887939 10.5685
0057 1398890380 10.2440
0058 1398892822 10.3684
0059 1398895263 11.1213
0060 1398897705 11.2647
0061 1398900146 10.8834
0062 1398902587 10.8531
0063 1398905029 11.0590
0064 1398907470 11.2419
0065 1398909912 11.3783
0066 1398912353 11.6749
0067 1398914794 12.3385
0068 1398917236 11.9167
0069 1398919677 12.0804
0070 1398922119 12.0308
0071 1398924560 12.2402
0072 1398927001 12.6501
0073 1398929443 12.6522
0074 1398931884 12.6585
0075 1398934326 12.7602
0076 1398936767 12.9547
0077 1398939208 13.1813
0078 1398941650 13.4415
0079 1398944091 13.4119
0080 1398946533 13.6021
0081 1398948974 13.8245
0082 1398951416 13.8940
0083 1398953857 14.0488
0084 1398956298 14.6335
0085 1398958740 14.6580
0086 1398961181 14.5111
0087 1398963623 14.8941
0088 1398966064 14.9886
0089 1398968505 15.1613
0090 1398970947 15.5231
0091 1398973388 15.5323
0092 1398975830 15.5898
0093 1398978271 16.0469
0094 1398980712 16.1187
0095 1398983154 15.7902
0096 1398985595 16.2572
0097 1398988037 17.0589
0098 1398990478 16.6000
0099 1398992919 16.7838
0100 1398995361 16.9739
0101 1398997802 16.9016
0102 1399000244 17.0699
0103 1399002685 17.7036
0104 1399005126 17.6575
0105 1399007568 17.8764
0106 1399010009 18.3211
0107 1399012451 17.9926
0108 1399014892 18.1355
0109 1399017333 19.4829
0110 1399019775 18.8142
0111 1399022216 18.6906
0112 1399024658 19.1889
0113 1399027099 19.0206
0114 1399029541 19.3389
0115 1399031982 19.3244
0116 1399034423 19.6201
0117 1399036865 19.5322
0118 1399039306 20.0174
0119 1399041748 19.9902
0120 1399044189 20.1066
0121 1399046630 20.2612
0122 1399049072 20.3993
0123 1399051513 20.6861
0124 1399053955 20.8623
0125 1399056396 21.0616
0126 1399058837 20.7676
0127 1399061279 21.4793
0128 1399063720 21.7984
0129 1399066162 21.3833
0130 1399068603 21.9966
0131 1399071044 22.1314
0132 1399073486 21.8539
0133 1399075927 22.0573
0134 1399078369 22.9242
0135 1399080810 22.5633
0136 1399083251 22.3885
0137 1399085693 23.1552
0138 1399088134 23.5049
0139 1399090576 22.8352
0140 1399093017 23.6362
0141 1399095458 24.0389
0142 1399097900 23.0804
0143 1399100341 23.7327
0144 1399102783 24.1430
0145 1399105224 24.0581
0146 1399107666 23.9754
0147 1399110107 24.1257
0148 1399112548 23.9137
0149 1399114990 23.9922
0150 1399117431 24.8205
0151 1399119873 24.4984
0152 1399122314 24.7637
0153 1399124755 24.8940
0154 1399127197 24.9255
0155 1399129638 25.1845
0156 1399132080 25.3577
0157 1399134521 27.4732
0158 1399136962 27.8210
0159 1399139404 26.9595
0160 1399141845 25.5324
0161 1399144287 25.5707
0162 1399146728 25.9764
0163 1399149169 25.9650
0164 1399151611 25.9802
0165 1399154052 26.3085
0166 1399156494 26.1911
0167 1399158935 26.2877
0168 1399161376 26.5066
0169 1399163818 26.1650
0170 1399166259 26.6344
0171 1399168701 27.0740
0172 1399171142 26.5799
0173 1399173583 27.0376
0174 1399176025 26.8409
0175 1399178466 26.9721
0176 1399180908 26.7978
0177 1399183349 27.0098
0178 1399185791 27.1190
0179 1399188232 27.5200
0180 1399190673 28.6626
0181 1399193115 27.9588
0182 1399195556 27.3647
0183 1399197998 28.4947
0184 1399200439 29.6133
0185 1399202880 27.8167
0186 1399205322 28.1330
0187 1399207763 28.8731
0188 1399210205 28.2014
0189 1399212646 28.0528
0190 1399215087 28.0998
0191 1399217529 28.0186
0192 1399219970 28.3444
0193 1399222412 28.3134
0194 1399224853 28.1007
0195 1399227294 28.2295
0196 1399229736 28.2958
0197 1399232177 28.1804
0198 1399234619 28.1986
0199 1399237060 28.6463
0200 1399239501 28.3798
0201 1399241943 28.7128
0202 1399244384 29.8735
0203 1399246826 29.4030
0204 1399249267 28.5961
0205 1399251708 28.7736
0206 1399254150 28.8204
0207 1399256591 28.6959
0208 1399259033 29.3930
0209 1399261474 29.2544
0210 1399263916 28.8021
0211 1399266357 28.9335
0212 1399268798 29.1703
0213 1399271240 28.9093
0214 1399273681 29.4043
0215 1399276123 29.7164
0216 1399278564 28.9973
0217 1399281005 28.8370
0218 1399283447 28.9955
0219 1399285888 29.5276
0220 1399288330 29.9962
0221 1399290771 29.1724
0222 1399293212 29.1212
0223 1399295654 28.8465
0224 1399298095 29.2784
0225 1399300537 29.1691
0226 1399302978 29.2094
0227 1399305419 30.1134
0228 1399307861 30.0959
0229 1399310302 29.3261
0230 1399312744 30.4888
0231 1399315185 29.5512
0232 1399317626 29.0595
0233 1399320068 30.0848
0234 1399322509 30.2336
0235 1399324951 29.5261
0236 1399327392 29.6520
0237 1399329833 34.2905
0238 1399332275 31.1974
0239 1399334716 29.0738
0240 1399337158 29.9609
0241 1399339599 29.7315
0242 1399342041 29.2600
0243 1399344482 29.3877
0244 1399346923 29.2546
0245 1399349365 29.0306
0246 1399351806 29.7947
0247 1399354248 29.2791
0248 1399356689 29.3175
0249 1399359130 29.2985
0250 1399361572 29.2889
0251 1399364013 29.7977
0252 1399366455 29.8177
0253 1399368896 30.7695
0254 1399371337 29.9209
0255 1399373779 30.2982
0256 1399376220 29.3028
0257 1399378662 29.1693
0258 1399381103 30.0106
0259 1399383544 29.4831
0260 1399385986 29.3453
0261 1399388427 29.3013
0262 1399390869 29.4555
0263 1399393310 28.8949
0264 1399395751 29.4198
0265 1399398193 29.1200
0266 1399400634 29.5563
0267 1399403076 29.3325
0268 1399405517 29.1332
0269 1399407958 29.1369
0270 1399410400 29.2344
0271 1399412841 29.3290
0272 1399415283 28.8793
0273 1399417724 28.8638
0274 1399420166 28.8409
0275 1399422607 28.9801
0276 1399425048 29.2078
0277 1399427490 29.5748
0278 1399429931 29.0836
0279 1399432373 29.4749
0280 1399434814 29.9404
0281 1399437255 29.1542
0282 1399439697 28.9280
0283 1399442138 30.4158
0284 1399444580 29.3499
0285 1399447021 28.6010
0286 1399449462 29.3990
0287 1399451904 29.8977
0288 1399454345 29.0433
0289 1399456787 29.1973
0290 1399459228 28.9035
0291 1399461669 28.6641
0292 1399464111 28.8406
0293 1399466552 28.7731
0294 1399468994 28.6040
0295 1399471435 29.0063
0296 1399473876 29.1776
0297 1399476318 29.0527
0298 1399478759 28.8916
0299 1399481201 28.8114
0300 1399483642 28.8122
0301 1399486083 29.1233
0302 1399488525 29.3170
0303 1399490966 28.7261
0304 1399493408 29.2418
0305 1399495849 29.4988
0306 1399498291 29.0343
0307 1399500732 29.4846
0308 1399503173 29.5552
0309 1399505615 28.7999
0310 1399508056 28.6733
0311 1399510498 29.1591
0312 1399512939 28.7313
0313 1399515380 28.5757
0314 1399517822 29.4654
0315 1399520263 28.8344
0316 1399522705 28.4952
0317 1399525146 29.2849
0318 1399527587 28.7980
0319 1399530029 28.7739
0320 1399532470 29.5096
0321 1399534912 29.0351
0322 1399537353 28.7510
0323 1399539794 29.3727
0324 1399542236 29.2005
0325 1399544677 28.6577
0326 1399547119 29.4636
0327 1399549560 29.7443
0328 1399552001 28.7800
0329 1399554443 29.5203
0330 1399556884 30.1612
0331 1399559326 28.7733
0332 1399561767 29.9228
0333 1399564208 31.1962
0334 1399566650 28.8022
0335 1399569091 29.0222
0336 1399571533 29.5722
0337 1399573974 28.6540
0338 1399576416 29.0622
0339 1399578857 29.2095
0340 1399581298 29.2889
0341 1399583740 29.3374
0342 1399586181 29.7156
0343 1399588623 29.9511
0344 1399591064 29.2146
0345 1399593505 29.9509
0346 1399595947 29.5240
0347 1399598388 29.1496
0348 1399600830 29.6409
0349 1399603271 29.4495
0350 1399605712 30.1529
0351 1399608154 29.7709
0352 1399610595 29.6945
0353 1399613037 29.1715
0354 1399615478 29.9979
0355 1399617919 29.9042
0356 1399620361 30.0112
0357 1399622802 30.9629
0358 1399625244 31.6867
0359 1399627685 29.6512
0360 1399630126 29.5836
0361 1399632568 30.3900
0362 1399635009 30.0773
0363 1399637451 30.1407
0364 1399639892 29.9834
0365 1399642333 30.0594
0366 1399644775 30.0199
0367 1399647216 30.4862
0368 1399649658 30.3332
0369 1399652099 30.4625
0370 1399654541 30.5630
0371 1399656982 30.0263
0372 1399659423 30.4084
0373 1399661865 30.2761
0374 1399664306 30.1619
0375 1399666748 30.5910
0376 1399669189 31.0135
0377 1399671630 30.4082
0378 1399674072 30.4925
0379 1399676513 34.6764
0380 1399678955 33.1854
0381 1399681396 31.1962
0382 1399683837 32.5489
0383 1399686279 32.8278
0384 1399688720 30.6638
0385 1399691162 30.5680
0386 1399693603 31.2175
0387 1399696044 30.9876
0388 1399698486 31.2797
0389 1399700927 31.4855
0390 1399703369 31.1237
0391 1399705810 30.9059
0392 1399708251 31.1082
0393 1399710693 30.9036
0394 1399713134 31.5262
0395 1399715576 31.7056
0396 1399718017 31.7568
0397 1399720458 32.6085
0398 1399722900 32.0642
0399 1399725341 31.5346
0400 1399727783 31.2368
0401 1399730224 31.7156
0402 1399732666 31.7131
0403 1399735107 31.8585
0404 1399737548 32.1046
0405 1399739990 31.5152
0406 1399742431 31.8417
0407 1399744873 33.9288
0408 1399747314 34.1041
0409 1399749755 36.7054
0410 1399752197 34.6649
0411 1399754638 32.1782
0412 1399757080 32.5062
0413 1399759521 32.7537
0414 1399761962 32.1567
0415 1399764404 32.4388
0416 1399766845 32.5604
0417 1399769287 32.8825
0418 1399771728 32.6073
0419 1399774169 32.8643
0420 1399776611 33.5962
0421 1399779052 33.0301
0422 1399781494 32.5713
0423 1399783935 32.7444
0424 1399786376 33.3656
0425 1399788818 33.7202
0426 1399791259 35.4019
0427 1399793701 38.7172
0428 1399796142 33.6387
0429 1399798583 33.9271
0430 1399801025 33.7224
0431 1399803466 33.8344
0432 1399805908 34.3957
0433 1399808349 34.5088
0434 1399810791 34.0533
0435 1399813232 34.0823
0436 1399815673 33.9243
0437 1399818115 33.8456
0438 1399820556 34.2929
0439 1399822998 34.5879
0440 1399825439 34.1189
0441 1399827880 33.8760
0442 1399830322 34.3849
0443 1399832763 33.8679
0444 1399835205 34.0707
0445 1399837646 34.1498
0446 1399840087 34.6118
0447 1399842529 34.6974
0448 1399844970 35.5484
0449 1399847412 34.9978
0450 1399849853 34.5583
0451 1399852294 34.5124
0452 1399854736 34.9369
0453 1399857177 35.4691
0454 1399859619 35.9848
0455 1399862060 34.9541
0456 1399864501 35.0996
0457 1399866943 37.3892
0458 1399869384 35.6270
0459 1399871826 35.3912
0460 1399874267 35.6690
0461 1399876708 35.3372
0462 1399879150 34.8994
0463 1399881591 35.3154
0464 1399884033 35.5925
0465 1399886474 35.5600
0466 1399888916 36.0090
0467 1399891357 35.3163
0468 1399893798 35.8886
0469 1399896240 67.0534
0470 1399898681 75.6217
0471 1399901123 36.7495
0472 1399903564 36.2343
0473 1399906005 35.6574
0474 1399908447 35.5541
0475 1399910888 35.7787
0476 1399913330 37.2959
0477 1399915771 36.8886
0478 1399918212 36.5742
0479 1399920654 36.5087
0480 1399923095 36.5099
0481 1399925537 36.3603
0482 1399927978 36.9507
0483 1399930419 36.5753
0484 1399932861 36.9142
0485 1399935302 37.5969
0486 1399937744 36.7254
0487 1399940185 36.7611
0488 1399942626 36.8557
0489 1399945068 36.9322
0490 1399947509 37.0669
0491 1399949951 37.7080
0492 1399952392 37.4606
0493 1399954833 37.0731
0494 1399957275 37.6337
0495 1399959716 37.4572
0496 1399962158 37.3816
0497 1399964599 37.6372
0498 1399967041 38.1351
0499 1399969482 37.9738
0500 1399971923 38.6578
0501 1399974365 41.9055
0502 1399976806 48.1913
0503 1399979248 62.4190
0504 1399981689 43.6676
0505 1399984130 40.3170
0506 1399986572 63.8015
0507 1399989013 86.6096
0508 1399991455 62.4826
0509 1399993896 56.1079
0510 1399996337 419.9994
0511 1399998779 656.2668
0512 1400001220 71.3378
0513 1400003662 45.6945
0514 1400006103 43.3107
0515 1400008544 41.2812
0516 1400010986 41.7187
0517 1400013427 45.6126
0518 1400015869 46.3832
0519 1400018310 38.7712
0520 1400020751 42.7585
0521 1400023193 44.3851
0522 1400025634 38.9106
0523 1400028076 38.3645
0524 1400030517 38.3111
0525 1400032958 38.6747
0526 1400035400 37.8415
0527 1400037841 38.1168
0528 1400040283 39.1621
0529 1400042724 38.3586
0530 1400045166 37.5360
0531 1400047607 39.8907
0532 1400050048 38.5960
0533 1400052490 36.7706
0534 1400054931 37.0406
0535 1400057373 37.3343
0536 1400059814 36.5353
0537 1400062255 36.4160
0538 1400064697 36.4790
0539 1400067138 36.1573
0540 1400069580 36.5136
0541 1400072021 36.9402
0542 1400074462 35.7021
0543 1400076904 36.1229
0544 1400079345 36.5453
0545 1400081787 35.7497
0546 1400084228 36.6255
0547 1400086669 38.4094
0548 1400089111 36.8361
0549 1400091552 35.8907
0550 1400093994 35.9960
0551 1400096435 36.1958
0552 1400098876 35.6212
0553 1400101318 35.4978
0554 1400103759 36.0092
0555 1400106201 35.9454
0556 1400108642 40.9596
0557 1400111083 39.0304
0558 1400113525 35.7578
0559 1400115966 35.8792
0560 1400118408 35.6777
0561 1400120849 35.0693
0562 1400123291 35.4308
0563 1400125732 35.6355
0564 1400128173 35.5367
0565 1400130615 34.9967
0566 1400133056 35.3165
0567 1400135498 35.3163
0568 1400137939 35.3038
0569 1400140380 34.6717
0570 1400142822 34.7171
0571 1400145263 34.7950
0572 1400147705 35.5363
0573 1400150146 34.6135
0574 1400152587 34.6659
0575 1400155029 35.9031
0576 1400157470 34.9617
0577 1400159912 34.7391
0578 1400162353 36.1453
0579 1400164794 35.4335
0580 1400167236 35.0891
0581 1400169677 35.2148
0582 1400172119 35.2237
0583 1400174560 34.1650
0584 1400177001 34.4214
0585 1400179443 34.1368
0586 1400181884 33.9294
0587 1400184326 34.6901
0588 1400186767 35.9911
0589 1400189208 34.3941
0590 1400191650 34.1335
0591 1400194091 34.2326
0592 1400196533 33.7897
0593 1400198974 33.7176
0594 1400201416 34.0750
0595 1400203857 33.7319
0596 1400206298 34.0694
0597 1400208740 34.4271
0598 1400211181 33.8644
0599 1400213623 33.6958
0600 1400216064 34.2139
0601 1400218505 33.7323
0602 1400220947 33.3548
0603 1400223388 34.0497
0604 1400225830 33.6309
0605 1400228271 32.5244
0606 1400230712 33.2905
0607 1400233154 33.3392
0608 1400235595 32.9116
0609 1400238037 32.8831
0610 1400240478 33.0456
0611 1400242919 32.7965
0612 1400245361 32.5711
0613 1400247802 32.7007
0614 1400250244 32.4686
0615 1400252685 32.6898
0616 1400255126 33.0402
0617 1400257568 34.1125
0618 1400260009 38.0375
0619 1400262451 32.7828
0620 1400264892 32.2531
0621 1400267333 32.1063
0622 1400269775 32.2425
0623 1400272216 32.1878
0624 1400274658 32.2204
0625 1400277099 33.0131
0626 1400279541 32.4809
0627 1400281982 32.4167
0628 1400284423 34.0292
0629 1400286865 32.6413
0630 1400289306 32.1241
0631 1400291748 33.9573
0632 1400294189 32.6537
0633 1400296630 31.7651
0634 1400299072 31.7679
0635 1400301513 32.5237
0636 1400303955 34.5500
0637 1400306396 32.3924
0638 1400308837 31.7665
0639 1400311279 31.4105
0640 1400313720 31.9074
0641 1400316162 31.6300
0642 1400318603 31.3251
0643 1400321044 31.6086
0644 1400323486 32.2893
0645 1400325927 31.2866
0646 1400328369 31.1346
0647 1400330810 31.4235
0648 1400333251 31.2018
0649 1400335693 31.3190
0650 1400338134 31.3409
0651 1400340576 31.0123
0652 1400343017 32.3235
0653 1400345458 32.6488
0654 1400347900 31.1430
0655 1400350341 30.9885
0656 1400352783 31.8407
0657 1400355224 31.2935
0658 1400357666 30.6549
0659 1400360107 30.6916
0660 1400362548 30.6639
0661 1400364990 30.5295
0662 1400367431 30.5155
0663 1400369873 30.6502
0664 1400372314 30.5270
0665 1400374755 31.0127
0666 1400377197 31.5790
0667 1400379638 31.5849
0668 1400382080 30.4099
0669 1400384521 30.7551
0670 1400386962 31.1758
0671 1400389404 30.9097
0672 1400391845 30.3085
0673 1400394287 30.1362
0674 1400396728 30.6281
0675 1400399169 30.9319
0676 1400401611 30.1900
0677 1400404052 30.4576
0678 1400406494 30.8380
0679 1400408935 29.7870
0680 1400411376 30.2458
0681 1400413818 31.9904
0682 1400416259 30.9760
0683 1400418701 30.2874
0684 1400421142 30.3364
0685 1400423583 30.1792
0686 1400426025 29.8945
0687 1400428466 30.1676
0688 1400430908 30.0349
0689 1400433349 29.8981
0690 1400435791 29.9793
0691 1400438232 29.9598
0692 1400440673 29.7193
0693 1400443115 30.0593
0694 1400445556 30.1789
0695 1400447998 29.9880
0696 1400450439 30.2844
0697 1400452880 29.9573
0698 1400455322 29.8474
0699 1400457763 30.4546
0700 1400460205 29.9882
0701 1400462646 29.8664
0702 1400465087 31.1183
0703 1400467529 31.4373
0704 1400469970 29.9265
0705 1400472412 30.4080
0706 1400474853 32.0559
0707 1400477294 30.0154
0708 1400479736 30.0147
0709 1400482177 30.0491
0710 1400484619 30.1643
0711 1400487060 29.7903
0712 1400489501 30.1094
0713 1400491943 29.8585
0714 1400494384 30.1036
0715 1400496826 31.4643
0716 1400499267 31.9218
0717 1400501708 30.2146
0718 1400504150 30.5111
0719 1400506591 30.2316
0720 1400509033 29.8961
0721 1400511474 29.8860
0722 1400513916 29.9084
0723 1400516357 30.0144
0724 1400518798 30.3479
0725 1400521240 30.3372
0726 1400523681 30.4987
0727 1400526123 31.5225
0728 1400528564 30.6385
0729 1400531005 30.1430
0730 1400533447 31.1261
0731 1400535888 31.8743
0732 1400538330 30.8554
0733 1400540771 30.7522
0734 1400543212 30.9111
0735 1400545654 29.7853
0736 1400548095 29.9995
0737 1400550537 30.4995
0738 1400552978 30.2552
0739 1400555419 30.1172
0740 1400557861 31.0703
0741 1400560302 30.4122
0742 1400562744 30.0570
0743 1400565185 30.4594
0744 1400567626 30.2486
0745 1400570068 30.5147
0746 1400572509 30.6170
0747 1400574951 30.2553
0748 1400577392 30.3438
0749 1400579833 30.4171
0750 1400582275 30.6683
0751 1400584716 30.5497
0752 1400587158 31.9336
0753 1400589599 30.9283
0754 1400592041 30.5894
0755 1400594482 33.1346
0756 1400596923 33.8590
0757 1400599365 30.9429
0758 1400601806 30.7057
0759 1400604248 30.6943
0760 1400606689 30.2138
0761 1400609130 30.7088
0762 1400611572 30.9301
0763 1400614013 30.6725
0764 1400616455 30.5195
0765 1400618896 31.1809
0766 1400621337 30.9227
0767 1400623779 30.8830
0768 1400626220 31.6056
0769 1400628662 30.6960
0770 1400631103 30.7654
0771 1400633544 31.1277
0772 1400635986 30.2153
0773 1400638427 30.5859
0774 1400640869 31.9167
0775 1400643310 30.8053
0776 1400645751 31.2174
0777 1400648193 32.3384
0778 1400650634 31.0388
0779 1400653076 30.9445
0780 1400655517 31.4566
0781 1400657958 31.2418
0782 1400660400 30.8803
0783 1400662841 31.0656
0784 1400665283 30.9914
0785 1400667724 30.9169
0786 1400670166 31.6910
0787 1400672607 38.4385
0788 1400675048 49.0453
0789 1400677490 32.5585
0790 1400679931 31.2412
0791 1400682373 30.7402
0792 1400684814 30.8521
0793 1400687255 31.4501
0794 1400689697 31.1416
0795 1400692138 36.1410
0796 1400694580 40.3966
0797 1400697021 34.0002
0798 1400699462 31.2462
0799 1400701904 30.9869
0800 1400704345 30.7688
0801 1400706787 31.2225
0802 1400709228 31.6400
0803 1400711669 30.8014
0804 1400714111 30.8919
0805 1400716552 33.2864
0806 1400718994 32.0788
0807 1400721435 30.6339
0808 1400723876 31.0970
0809 1400726318 30.8303
0810 1400728759 31.2874
0811 1400731201 31.1969
0812 1400733642 30.5132
0813 1400736083 30.5193
0814 1400738525 30.5733
0815 1400740966 30.7817
0816 1400743408 30.4923
0817 1400745849 30.8442
0818 1400748291 30.9295
0819 1400750732 30.1036
0820 1400753173 30.4488
0821 1400755615 30.7098
0822 1400758056 30.2471
0823 1400760498 30.4454
0824 1400762939 30.8174
0825 1400765380 30.3711
0826 1400767822 31.7858
0827 1400770263 32.1863
0828 1400772705 30.1413
0829 1400775146 30.1445
0830 1400777587 31.8680
0831 1400780029 30.4856
0832 1400782470 30.0745
0833 1400784912 30.0531
0834 1400787353 30.2992
0835 1400789794 29.9329
0836 1400792236 29.9956
0837 1400794677 29.7454
0838 1400797119 29.7130
0839 1400799560 29.9474
0840 1400802001 29.3868
0841 1400804443 29.1559
0842 1400806884 29.2074
0843 1400809326 29.2731
0844 1400811767 28.9869
0845 1400814208 29.7899
0846 1400816650 29.2527
0847 1400819091 29.0647
0848 1400821533 29.8423
0849 1400823974 30.9891
0850 1400826416 28.8571
0851 1400828857 28.8558
0852 1400831298 28.8334
0853 1400833740 28.2196
0854 1400836181 28.3301
0855 1400838623 29.0611
0856 1400841064 28.4322
0857 1400843505 27.8781
0858 1400845947 28.0245
0859 1400848388 27.3995
0860 1400850830 27.7614
0861 1400853271 28.2072
0862 1400855712 27.3417
0863 1400858154 27.4371
0864 1400860595 27.3180
0865 1400863037 27.0812
0866 1400865478 27.0819
0867 1400867919 27.4102
0868 1400870361 27.1146
0869 1400872802 26.9604
0870 1400875244 27.0037
0871 1400877685 26.9902
0872 1400880126 26.7069
0873 1400882568 26.5842
0874 1400885009 26.4721
0875 1400887451 29.9365
0876 1400889892 28.1120
0877 1400892333 26.1213
0878 1400894775 25.7202
0879 1400897216 25.8284
0880 1400899658 26.4930
0881 1400902099 25.5435
0882 1400904541 25.3152
0883 1400906982 25.0451
0884 1400909423 24.6806
0885 1400911865 24.9823
0886 1400914306 24.9250
0887 1400916748 24.7068
0888 1400919189 24.5488
0889 1400921630 24.3386
0890 1400924072 24.2098
0891 1400926513 24.4039
0892 1400928955 24.8902
0893 1400931396 23.8522
0894 1400933837 23.2443
0895 1400936279 23.2105
0896 1400938720 23.0112
0897 1400941162 23.0871
0898 1400943603 23.2389
0899 1400946044 22.9543
0900 1400948486 22.6446
0901 1400950927 22.7044
0902 1400953369 22.5567
0903 1400955810 21.7169
0904 1400958251 22.6532
0905 1400960693 22.8081
0906 1400963134 21.8539
0907 1400965576 22.2714
0908 1400968017 21.2957
0909 1400970458 20.9979
0910 1400972900 21.0611
0911 1400975341 20.9931
0912 1400977783 20.4670
0913 1400980224 20.3342
0914 1400982666 20.0591
0915 1400985107 20.0051
0916 1400987548 19.8079
0917 1400989990 19.7131
0918 1400992431 19.5092
0919 1400994873 19.2382
0920 1400997314 19.2962
0921 1400999755 19.0808
0922 1401002197 18.7588
0923 1401004638 18.6102
0924 1401007080 18.3826
0925 1401009521 18.3630
0926 1401011962 18.5310
0927 1401014404 17.8712
0928 1401016845 17.5914
0929 1401019287 17.7438
0930 1401021728 17.5128
0931 1401024169 17.1159
0932 1401026611 16.9855
0933 1401029052 16.6143
0934 1401031494 16.4564
0935 1401033935 16.1144
0936 1401036376 16.0532
0937 1401038818 15.8486
0938 1401041259 15.8825
0939 1401043701 15.9022
0940 1401046142 15.2702
0941 1401048583 15.2171
0942 1401051025 15.0348
0943 1401053466 15.0207
0944 1401055908 14.7636
0945 1401058349 14.5992
0946 1401060791 14.4637
0947 1401063232 14.1066
0948 1401065673 14.1919
0949 1401068115 13.9363
0950 1401070556 13.9307
0951 1401072998 13.7247
0952 1401075439 13.4720
0953 1401077880 13.2088
0954 1401080322 13.4857
0955 1401082763 13.6763
0956 1401085205 12.8000
0957 1401087646 12.9021
0958 1401090087 12.5200
0959 1401092529 12.1632
0960 1401094970 12.1278
0961 1401097412 12.4404
0962 1401099853 11.9604
0963 1401102294 11.6169
0964 1401104736 11.4573
0965 1401107177 11.2760
0966 1401109619 11.1315
0967 1401112060 10.9198
0968 1401114501 10.7248
0969 1401116943 10.6053
0970 1401119384 10.5586
0971 1401121826 10.3959
0972 1401124267 10.4458
0973 1401126708 10.4461
0974 1401129150 10.1148
0975 1401131591 10.0868
0976 1401134033 10.2025
0977 1401136474 9.6394
0978 1401138916 9.4465
0979 1401141357 9.5748
0980 1401143798 9.3183
0981 1401146240 9.1695
0982 1401148681 9.1392
0983 1401151123 8.9681
0984 1401153564 8.7479
0985 1401156005 8.7180
0986 1401158447 8.6186
0987 1401160888 8.5498
0988 1401163330 8.3802
0989 1401165771 8.3370
0990 1401168212 8.1962
0991 1401170654 8.1232
0992 1401173095 8.1257
0993 1401175537 7.9731
0994 1401177978 7.9791
0995 1401180419 7.8399
0996 1401182861 7.6846
0997 1401185302 7.6688
0998 1401187744 7.8326
0999 1401190185 7.5532
1000 1401192626 7.5075
1001 1401195068 7.6618
1002 1401197509 11.0289
1003 1401199951 8.5247
1004 1401202392 7.4431
1005 1401204833 7.1774
1006 1401207275 6.9338
1007 1401209716 6.8666
1008 1401212158 6.8983
1009 1401214599 7.0048
1010 1401217041 6.7296
1011 1401219482 6.6646
1012 1401221923 6.6438
1013 1401224365 6.6349
1014 1401226806 6.5819
1015 1401229248 6.4881
1016 1401231689 6.4683
1017 1401234130 6.3715
1018 1401236572 6.4062
1019 1401239013 6.3895
1020 1401241455 6.4260
1021 1401243896 6.4027
1022 1401246337 6.4686
1023 1401248779 6.4372
