# File: 20-05-31T224922.ast
# NOTEA     = None Attached.  RTLSDR Dongle Test
# NOTEB     = Spectral Integration
# OBSERVER  = Science Aficionado
# DEVICE    = rtlsdr=0
# DATADIR   = ../data/
# SITE      = None Attached.  RTLSDR Dongle Test
# CITY      = Green Bank
# REGION    = West Virginia
# COUNTRY   = US
# TELTYPE   = Bubble Wrap  Horn
# FRAME     = TOPO
# GAIN1     = 49.0
# GAIN2     = 11.0
# GAIN3     = 11.0
# GAIN4     = 0.0
# Count     = 10000
# CenterFreq= 1400000000.0
# Bandwidth = 2500000.0
# Duration  = 41.952527
# DeltaX    = 5859.375
# TSYS      = 200.0
# TRX       = 100.0
# TRMS      = 2.0
# TINT      = 1.0
# KPERC     = 100.0
# GAINFACT  = 1.0
# BUNIT     = Counts
# NCHAN     = 1024
# NSPEC     = 1
# NTIME     = 0
# NSAMPLES  = 0
# EPEAK     = 4.10875183718
# ERMS      = 0.995973393526
# EMJD      = 58568.808999981004 
# REFCHAN   = 512.0
# REFSAMPL  = 256.0
# NAVE      = 100
# NMEDIAN   = 1024
# Fft_rate  = 5000
# UTC       = 2020-05-31 22:49:22.745809
# SECONDS   =       0.0000000000 
# LST       = 10:09:34.170
# AZ        = 180.0
# EL        = 90.0
# TELLON    = -79:50:22.920
# TELLAT    = +38:25:59.160
# RA        = 10:07:09.840
# DEC       = +38:37:45.900
# GALLON    = 183:42:48.80
# GALLAT    = +53:58:56.10
# ALT_SUN   = +18:48:08.7
# AZ_SUN    = +283:43:36.5
# ETAA      = 0.8
# ETAB      = 0.99
# POLANGLE  = 0.0
# TELSIZEAM = 1.0
# TELSIZEBM = 1.0
# AST_VERS  = 05.01
0000 1398751220 6.4797
0001 1398753662 6.3820
0002 1398756103 6.5427
0003 1398758544 6.6420
0004 1398760986 6.4217
0005 1398763427 6.5633
0006 1398765869 6.4109
0007 1398768310 6.3550
0008 1398770751 6.3696
0009 1398773193 6.4935
0010 1398775634 6.7021
0011 1398778076 6.5450
0012 1398780517 6.5128
0013 1398782958 6.6139
0014 1398785400 6.5946
0015 1398787841 6.8526
0016 1398790283 6.8015
0017 1398792724 6.7873
0018 1398795166 7.0646
0019 1398797607 10.5055
0020 1398800048 8.0231
0021 1398802490 6.9394
0022 1398804931 6.8760
0023 1398807373 6.8905
0024 1398809814 7.0952
0025 1398812255 7.0827
0026 1398814697 7.1572
0027 1398817138 7.1081
0028 1398819580 7.2699
0029 1398822021 7.4394
0030 1398824462 7.3619
0031 1398826904 7.4693
0032 1398829345 7.6153
0033 1398831787 7.5832
0034 1398834228 7.9465
0035 1398836669 7.9997
0036 1398839111 7.8468
0037 1398841552 7.9751
0038 1398843994 8.1195
0039 1398846435 8.1214
0040 1398848876 8.2294
0041 1398851318 8.3460
0042 1398853759 8.4066
0043 1398856201 8.5243
0044 1398858642 8.6986
0045 1398861083 8.7134
0046 1398863525 8.7299
0047 1398865966 9.0542
0048 1398868408 9.1407
0049 1398870849 9.1919
0050 1398873291 9.3445
0051 1398875732 9.4081
0052 1398878173 9.6702
0053 1398880615 9.7762
0054 1398883056 9.7341
0055 1398885498 10.0435
0056 1398887939 10.4028
0057 1398890380 10.2542
0058 1398892822 10.3419
0059 1398895263 11.1823
0060 1398897705 11.3805
0061 1398900146 10.9460
0062 1398902587 10.8214
0063 1398905029 11.0421
0064 1398907470 11.2697
0065 1398909912 11.3808
0066 1398912353 11.8052
0067 1398914794 12.2006
0068 1398917236 11.8471
0069 1398919677 12.0431
0070 1398922119 11.9691
0071 1398924560 12.2752
0072 1398927001 12.6770
0073 1398929443 12.6424
0074 1398931884 12.6997
0075 1398934326 12.6779
0076 1398936767 12.8598
0077 1398939208 13.1503
0078 1398941650 13.4678
0079 1398944091 13.2667
0080 1398946533 13.6082
0081 1398948974 13.9589
0082 1398951416 13.8718
0083 1398953857 14.0783
0084 1398956298 14.5636
0085 1398958740 14.5735
0086 1398961181 14.5704
0087 1398963623 14.8780
0088 1398966064 15.0349
0089 1398968505 15.1725
0090 1398970947 15.4309
0091 1398973388 15.7691
0092 1398975830 15.5727
0093 1398978271 15.7596
0094 1398980712 15.9485
0095 1398983154 15.9189
0096 1398985595 16.1579
0097 1398988037 16.7750
0098 1398990478 16.6383
0099 1398992919 16.8259
0100 1398995361 16.7007
0101 1398997802 16.8728
0102 1399000244 17.2619
0103 1399002685 17.6610
0104 1399005126 17.6253
0105 1399007568 17.7763
0106 1399010009 18.2744
0107 1399012451 18.1424
0108 1399014892 18.1144
0109 1399017333 19.4093
0110 1399019775 18.7945
0111 1399022216 18.6398
0112 1399024658 19.2928
0113 1399027099 19.3589
0114 1399029541 19.4794
0115 1399031982 19.3131
0116 1399034423 19.5231
0117 1399036865 19.4903
0118 1399039306 20.0486
0119 1399041748 20.2204
0120 1399044189 20.0758
0121 1399046630 20.3895
0122 1399049072 20.6348
0123 1399051513 20.5916
0124 1399053955 20.9289
0125 1399056396 21.4909
0126 1399058837 21.0905
0127 1399061279 21.4108
0128 1399063720 21.6947
0129 1399066162 21.3905
0130 1399068603 21.8502
0131 1399071044 22.2278
0132 1399073486 21.8123
0133 1399075927 22.1180
0134 1399078369 22.8869
0135 1399080810 22.3546
0136 1399083251 22.4095
0137 1399085693 23.1858
0138 1399088134 23.4732
0139 1399090576 22.8562
0140 1399093017 24.0154
0141 1399095458 24.0155
0142 1399097900 23.2637
0143 1399100341 23.7980
0144 1399102783 24.2070
0145 1399105224 23.9052
0146 1399107666 23.9262
0147 1399110107 23.9870
0148 1399112548 24.2715
0149 1399114990 24.3106
0150 1399117431 24.6783
0151 1399119873 24.8482
0152 1399122314 24.6541
0153 1399124755 24.7098
0154 1399127197 24.6336
0155 1399129638 25.0655
0156 1399132080 25.1666
0157 1399134521 27.4678
0158 1399136962 27.9478
0159 1399139404 26.9311
0160 1399141845 25.4555
0161 1399144287 25.7634
0162 1399146728 26.1154
0163 1399149169 25.9583
0164 1399151611 25.8907
0165 1399154052 26.3229
0166 1399156494 26.2905
0167 1399158935 26.2904
0168 1399161376 26.4867
0169 1399163818 26.2536
0170 1399166259 26.5418
0171 1399168701 27.1670
0172 1399171142 26.6003
0173 1399173583 26.5961
0174 1399176025 26.9273
0175 1399178466 27.3160
0176 1399180908 27.1856
0177 1399183349 27.6527
0178 1399185791 27.4685
0179 1399188232 26.9618
0180 1399190673 28.5068
0181 1399193115 28.0990
0182 1399195556 27.4160
0183 1399197998 28.1004
0184 1399200439 29.0511
0185 1399202880 28.0133
0186 1399205322 28.4065
0187 1399207763 29.1766
0188 1399210205 28.1718
0189 1399212646 28.1533
0190 1399215087 28.1465
0191 1399217529 28.2207
0192 1399219970 28.3111
0193 1399222412 28.5585
0194 1399224853 28.2100
0195 1399227294 27.9819
0196 1399229736 28.3623
0197 1399232177 28.3855
0198 1399234619 28.2139
0199 1399237060 28.9142
0200 1399239501 28.7281
0201 1399241943 28.5759
0202 1399244384 29.9065
0203 1399246826 29.4315
0204 1399249267 28.7829
0205 1399251708 28.9460
0206 1399254150 28.6498
0207 1399256591 28.6650
0208 1399259033 29.3086
0209 1399261474 29.3987
0210 1399263916 28.9768
0211 1399266357 28.8822
0212 1399268798 28.9744
0213 1399271240 28.9311
0214 1399273681 29.6616
0215 1399276123 29.8833
0216 1399278564 28.7948
0217 1399281005 28.8499
0218 1399283447 29.0293
0219 1399285888 29.4349
0220 1399288330 29.6442
0221 1399290771 29.3371
0222 1399293212 29.1057
0223 1399295654 29.3805
0224 1399298095 29.5252
0225 1399300537 29.3038
0226 1399302978 29.1951
0227 1399305419 29.8224
0228 1399307861 30.1023
0229 1399310302 29.1772
0230 1399312744 30.6644
0231 1399315185 29.6433
0232 1399317626 29.0822
0233 1399320068 29.8559
0234 1399322509 29.5462
0235 1399324951 29.2395
0236 1399327392 29.4531
0237 1399329833 35.0962
0238 1399332275 31.3953
0239 1399334716 29.2294
0240 1399337158 29.8837
0241 1399339599 29.7029
0242 1399342041 29.1847
0243 1399344482 29.6322
0244 1399346923 28.8894
0245 1399349365 29.0616
0246 1399351806 29.5692
0247 1399354248 29.1226
0248 1399356689 29.0281
0249 1399359130 29.1268
0250 1399361572 29.3841
0251 1399364013 29.8779
0252 1399366455 30.0298
0253 1399368896 30.5254
0254 1399371337 29.6069
0255 1399373779 30.1894
0256 1399376220 29.5073
0257 1399378662 29.2372
0258 1399381103 30.1711
0259 1399383544 30.0166
0260 1399385986 28.9433
0261 1399388427 29.0104
0262 1399390869 29.6287
0263 1399393310 29.2781
0264 1399395751 29.5750
0265 1399398193 29.3280
0266 1399400634 29.4908
0267 1399403076 29.4831
0268 1399405517 29.1623
0269 1399407958 29.1951
0270 1399410400 29.5817
0271 1399412841 29.4791
0272 1399415283 28.9594
0273 1399417724 29.2391
0274 1399420166 29.1136
0275 1399422607 29.0236
0276 1399425048 29.3265
0277 1399427490 29.4675
0278 1399429931 29.4502
0279 1399432373 29.4088
0280 1399434814 29.7383
0281 1399437255 29.0721
0282 1399439697 28.8734
0283 1399442138 30.5254
0284 1399444580 29.2784
0285 1399447021 28.4322
0286 1399449462 29.5721
0287 1399451904 29.7437
0288 1399454345 28.9251
0289 1399456787 28.9640
0290 1399459228 28.9134
0291 1399461669 29.0286
0292 1399464111 28.9430
0293 1399466552 28.8025
0294 1399468994 28.4343
0295 1399471435 29.0075
0296 1399473876 29.3598
0297 1399476318 28.8253
0298 1399478759 28.8701
0299 1399481201 29.3289
0300 1399483642 28.9681
0301 1399486083 29.1862
0302 1399488525 29.0338
0303 1399490966 28.6861
0304 1399493408 29.2244
0305 1399495849 29.5012
0306 1399498291 29.1439
0307 1399500732 30.2735
0308 1399503173 29.8108
0309 1399505615 28.7434
0310 1399508056 28.8121
0311 1399510498 28.9914
0312 1399512939 28.8327
0313 1399515380 28.8120
0314 1399517822 29.2715
0315 1399520263 28.9532
0316 1399522705 28.7583
0317 1399525146 29.5308
0318 1399527587 28.9787
0319 1399530029 28.9235
0320 1399532470 29.3817
0321 1399534912 28.8776
0322 1399537353 29.1438
0323 1399539794 29.4502
0324 1399542236 29.0100
0325 1399544677 28.7022
0326 1399547119 29.3989
0327 1399549560 29.2739
0328 1399552001 28.6317
0329 1399554443 29.6227
0330 1399556884 30.3825
0331 1399559326 29.1887
0332 1399561767 30.1862
0333 1399564208 31.5502
0334 1399566650 29.1586
0335 1399569091 29.0308
0336 1399571533 29.5869
0337 1399573974 29.1928
0338 1399576416 29.1131
0339 1399578857 29.3998
0340 1399581298 28.7136
0341 1399583740 29.3177
0342 1399586181 29.6234
0343 1399588623 29.7189
0344 1399591064 29.2575
0345 1399593505 29.9901
0346 1399595947 29.7716
0347 1399598388 29.4223
0348 1399600830 29.4208
0349 1399603271 29.7841
0350 1399605712 29.6490
0351 1399608154 29.8075
0352 1399610595 29.6303
0353 1399613037 29.8410
0354 1399615478 29.9934
0355 1399617919 30.1091
0356 1399620361 30.6858
0357 1399622802 31.0094
0358 1399625244 31.7751
0359 1399627685 29.6934
0360 1399630126 30.0339
0361 1399632568 30.9959
0362 1399635009 30.2126
0363 1399637451 30.3286
0364 1399639892 30.0536
0365 1399642333 29.9435
0366 1399644775 30.2051
0367 1399647216 30.4435
0368 1399649658 30.4226
0369 1399652099 30.8169
0370 1399654541 30.5239
0371 1399656982 30.3393
0372 1399659423 30.7512
0373 1399661865 30.5626
0374 1399664306 29.9955
0375 1399666748 30.1546
0376 1399669189 30.9848
0377 1399671630 30.9566
0378 1399674072 30.9580
0379 1399676513 35.1801
0380 1399678955 33.6612
0381 1399681396 31.6943
0382 1399683837 33.0432
0383 1399686279 32.8483
0384 1399688720 30.7628
0385 1399691162 31.0138
0386 1399693603 31.2552
0387 1399696044 30.9456
0388 1399698486 31.2348
0389 1399700927 31.6627
0390 1399703369 31.6442
0391 1399705810 31.1905
0392 1399708251 31.1968
0393 1399710693 31.1692
0394 1399713134 31.4790
0395 1399715576 32.0300
0396 1399718017 31.6287
0397 1399720458 32.6149
0398 1399722900 32.1046
0399 1399725341 31.2912
0400 1399727783 31.5466
0401 1399730224 32.0526
0402 1399732666 31.6130
0403 1399735107 31.8005
0404 1399737548 32.0962
0405 1399739990 32.0115
0406 1399742431 31.9789
0407 1399744873 33.7823
0408 1399747314 34.1883
0409 1399749755 38.3237
0410 1399752197 35.5765
0411 1399754638 32.0900
0412 1399757080 32.7077
0413 1399759521 32.8898
0414 1399761962 32.3406
0415 1399764404 32.5029
0416 1399766845 32.9757
0417 1399769287 32.9280
0418 1399771728 32.5029
0419 1399774169 32.8593
0420 1399776611 34.1810
0421 1399779052 33.2984
0422 1399781494 33.1031
0423 1399783935 32.7631
0424 1399786376 32.9969
0425 1399788818 32.9430
0426 1399791259 35.6341
0427 1399793701 38.9073
0428 1399796142 33.8399
0429 1399798583 34.1466
0430 1399801025 33.8788
0431 1399803466 33.8910
0432 1399805908 34.8660
0433 1399808349 35.3539
0434 1399810791 34.1118
0435 1399813232 34.3951
0436 1399815673 34.2089
0437 1399818115 33.7814
0438 1399820556 34.4321
0439 1399822998 34.6690
0440 1399825439 34.2352
0441 1399827880 34.3991
0442 1399830322 35.0312
0443 1399832763 33.8808
0444 1399835205 34.1504
0445 1399837646 33.7851
0446 1399840087 34.7787
0447 1399842529 35.2777
0448 1399844970 35.3389
0449 1399847412 34.9682
0450 1399849853 34.4519
0451 1399852294 34.5102
0452 1399854736 34.7898
0453 1399857177 35.2918
0454 1399859619 36.0123
0455 1399862060 35.1012
0456 1399864501 35.3498
0457 1399866943 37.5933
0458 1399869384 35.8301
0459 1399871826 35.4875
0460 1399874267 35.3724
0461 1399876708 35.2123
0462 1399879150 35.0878
0463 1399881591 35.7752
0464 1399884033 35.8483
0465 1399886474 35.3896
0466 1399888916 35.7398
0467 1399891357 35.6286
0468 1399893798 35.8279
0469 1399896240 71.3514
0470 1399898681 80.1767
0471 1399901123 36.8970
0472 1399903564 36.5656
0473 1399906005 36.2663
0474 1399908447 35.6726
0475 1399910888 36.2555
0476 1399913330 37.8592
0477 1399915771 37.1327
0478 1399918212 36.3106
0479 1399920654 36.6431
0480 1399923095 36.3832
0481 1399925537 36.3975
0482 1399927978 37.0350
0483 1399930419 36.4386
0484 1399932861 37.0138
0485 1399935302 37.5765
0486 1399937744 36.7074
0487 1399940185 37.1622
0488 1399942626 37.2427
0489 1399945068 37.0533
0490 1399947509 37.2178
0491 1399949951 37.7733
0492 1399952392 37.6783
0493 1399954833 37.8499
0494 1399957275 37.8867
0495 1399959716 37.6898
0496 1399962158 37.4724
0497 1399964599 38.0721
0498 1399967041 37.9153
0499 1399969482 38.2822
0500 1399971923 38.9335
0501 1399974365 42.2847
0502 1399976806 47.7922
0503 1399979248 61.8510
0504 1399981689 44.7858
0505 1399984130 40.5978
0506 1399986572 62.6029
0507 1399989013 85.2959
0508 1399991455 63.5669
0509 1399993896 56.6525
0510 1399996337 426.0802
0511 1399998779 669.5566
0512 1400001220 73.0551
0513 1400003662 46.2786
0514 1400006103 44.2396
0515 1400008544 41.5885
0516 1400010986 41.8522
0517 1400013427 43.8879
0518 1400015869 44.3044
0519 1400018310 38.8854
0520 1400020751 42.8390
0521 1400023193 44.8681
0522 1400025634 39.4163
0523 1400028076 39.0299
0524 1400030517 38.4878
0525 1400032958 38.6832
0526 1400035400 38.3655
0527 1400037841 38.2212
0528 1400040283 39.0306
0529 1400042724 38.6399
0530 1400045166 37.4525
0531 1400047607 39.6186
0532 1400050048 39.0291
0533 1400052490 36.5747
0534 1400054931 37.2203
0535 1400057373 37.2495
0536 1400059814 37.4846
0537 1400062255 36.6583
0538 1400064697 36.5678
0539 1400067138 36.3884
0540 1400069580 36.2207
0541 1400072021 36.8401
0542 1400074462 36.1290
0543 1400076904 36.3125
0544 1400079345 36.8292
0545 1400081787 35.9505
0546 1400084228 37.2867
0547 1400086669 38.6809
0548 1400089111 36.1283
0549 1400091552 35.7668
0550 1400093994 36.2145
0551 1400096435 36.3010
0552 1400098876 36.3158
0553 1400101318 35.7643
0554 1400103759 35.8607
0555 1400106201 36.4466
0556 1400108642 42.2171
0557 1400111083 39.3328
0558 1400113525 35.7003
0559 1400115966 35.4803
0560 1400118408 36.0069
0561 1400120849 35.3681
0562 1400123291 36.0109
0563 1400125732 36.1920
0564 1400128173 35.9064
0565 1400130615 35.4051
0566 1400133056 35.4813
0567 1400135498 35.0913
0568 1400137939 34.9714
0569 1400140380 34.9849
0570 1400142822 34.7370
0571 1400145263 34.7066
0572 1400147705 35.6323
0573 1400150146 35.0194
0574 1400152587 34.8843
0575 1400155029 36.0017
0576 1400157470 35.2151
0577 1400159912 35.1381
0578 1400162353 36.4741
0579 1400164794 35.5110
0580 1400167236 34.9727
0581 1400169677 35.1880
0582 1400172119 35.2142
0583 1400174560 34.4819
0584 1400177001 34.4400
0585 1400179443 34.3232
0586 1400181884 34.3334
0587 1400184326 34.3583
0588 1400186767 35.9192
0589 1400189208 34.2178
0590 1400191650 34.1902
0591 1400194091 34.5047
0592 1400196533 34.0075
0593 1400198974 33.8037
0594 1400201416 34.3879
0595 1400203857 34.0795
0596 1400206298 34.0597
0597 1400208740 34.5626
0598 1400211181 33.8552
0599 1400213623 33.4622
0600 1400216064 34.1309
0601 1400218505 33.8248
0602 1400220947 33.5872
0603 1400223388 33.8749
0604 1400225830 33.5456
0605 1400228271 33.1712
0606 1400230712 33.5056
0607 1400233154 33.2527
0608 1400235595 33.3479
0609 1400238037 32.9757
0610 1400240478 33.0624
0611 1400242919 33.0327
0612 1400245361 32.6942
0613 1400247802 32.9076
0614 1400250244 32.7095
0615 1400252685 32.8861
0616 1400255126 33.0975
0617 1400257568 34.1466
0618 1400260009 39.2505
0619 1400262451 33.2091
0620 1400264892 32.4073
0621 1400267333 32.2553
0622 1400269775 32.4205
0623 1400272216 32.4501
0624 1400274658 32.4492
0625 1400277099 33.0456
0626 1400279541 32.4771
0627 1400281982 32.7557
0628 1400284423 34.3017
0629 1400286865 32.6989
0630 1400289306 32.0496
0631 1400291748 34.3232
0632 1400294189 32.7532
0633 1400296630 31.8453
0634 1400299072 31.8481
0635 1400301513 32.4621
0636 1400303955 35.5120
0637 1400306396 32.3858
0638 1400308837 31.8545
0639 1400311279 31.4988
0640 1400313720 31.6831
0641 1400316162 31.5952
0642 1400318603 31.2437
0643 1400321044 31.6397
0644 1400323486 31.9876
0645 1400325927 31.2927
0646 1400328369 31.1940
0647 1400330810 31.8683
0648 1400333251 31.2244
0649 1400335693 31.3501
0650 1400338134 31.3115
0651 1400340576 31.1383
0652 1400343017 32.3473
0653 1400345458 32.3919
0654 1400347900 30.9819
0655 1400350341 30.9697
0656 1400352783 31.9717
0657 1400355224 31.4720
0658 1400357666 31.0219
0659 1400360107 30.9365
0660 1400362548 30.8783
0661 1400364990 30.6839
0662 1400367431 30.6895
0663 1400369873 30.5114
0664 1400372314 30.0935
0665 1400374755 30.7895
0666 1400377197 31.5551
0667 1400379638 31.9341
0668 1400382080 30.4959
0669 1400384521 30.5697
0670 1400386962 30.7489
0671 1400389404 30.8122
0672 1400391845 30.7724
0673 1400394287 30.3724
0674 1400396728 30.8584
0675 1400399169 31.2016
0676 1400401611 30.2829
0677 1400404052 30.4157
0678 1400406494 30.6774
0679 1400408935 30.5448
0680 1400411376 30.7571
0681 1400413818 32.3681
0682 1400416259 30.8037
0683 1400418701 30.1203
0684 1400421142 30.1713
0685 1400423583 29.9362
0686 1400426025 29.8265
0687 1400428466 30.1290
0688 1400430908 30.1392
0689 1400433349 29.9015
0690 1400435791 30.0071
0691 1400438232 30.2063
0692 1400440673 29.9962
0693 1400443115 30.5844
0694 1400445556 30.2375
0695 1400447998 30.1394
0696 1400450439 30.3333
0697 1400452880 29.9081
0698 1400455322 29.9607
0699 1400457763 30.3332
0700 1400460205 30.1852
0701 1400462646 29.9312
0702 1400465087 31.1833
0703 1400467529 30.9874
0704 1400469970 30.0988
0705 1400472412 30.7229
0706 1400474853 32.2348
0707 1400477294 30.0898
0708 1400479736 29.6809
0709 1400482177 30.1638
0710 1400484619 30.1286
0711 1400487060 30.4874
0712 1400489501 30.2265
0713 1400491943 29.9026
0714 1400494384 30.3037
0715 1400496826 32.1178
0716 1400499267 31.7679
0717 1400501708 30.3300
0718 1400504150 30.0928
0719 1400506591 29.9680
0720 1400509033 29.9502
0721 1400511474 30.0099
0722 1400513916 30.1592
0723 1400516357 30.1791
0724 1400518798 30.4396
0725 1400521240 30.3888
0726 1400523681 30.3064
0727 1400526123 31.4129
0728 1400528564 30.4724
0729 1400531005 30.0738
0730 1400533447 31.3795
0731 1400535888 31.4733
0732 1400538330 30.7563
0733 1400540771 30.7812
0734 1400543212 31.0283
0735 1400545654 30.4556
0736 1400548095 30.5469
0737 1400550537 30.7422
0738 1400552978 30.3434
0739 1400555419 30.2450
0740 1400557861 31.3627
0741 1400560302 30.3740
0742 1400562744 30.2113
0743 1400565185 30.2264
0744 1400567626 30.2516
0745 1400570068 30.3691
0746 1400572509 30.7941
0747 1400574951 30.1416
0748 1400577392 30.3560
0749 1400579833 30.5807
0750 1400582275 30.7499
0751 1400584716 30.6907
0752 1400587158 31.6876
0753 1400589599 30.9615
0754 1400592041 30.5225
0755 1400594482 32.8725
0756 1400596923 33.8334
0757 1400599365 30.7817
0758 1400601806 30.5601
0759 1400604248 30.8804
0760 1400606689 30.1696
0761 1400609130 30.9350
0762 1400611572 30.8977
0763 1400614013 30.7552
0764 1400616455 30.8950
0765 1400618896 31.2035
0766 1400621337 30.9549
0767 1400623779 31.1202
0768 1400626220 31.7371
0769 1400628662 30.7033
0770 1400631103 30.8170
0771 1400633544 30.7043
0772 1400635986 30.6213
0773 1400638427 30.9346
0774 1400640869 32.1342
0775 1400643310 31.1297
0776 1400645751 31.4685
0777 1400648193 32.0778
0778 1400650634 30.9517
0779 1400653076 30.7619
0780 1400655517 31.2938
0781 1400657958 31.6356
0782 1400660400 30.9209
0783 1400662841 31.0030
0784 1400665283 31.3159
0785 1400667724 30.9235
0786 1400670166 31.9510
0787 1400672607 38.5055
0788 1400675048 48.1325
0789 1400677490 32.8383
0790 1400679931 30.9993
0791 1400682373 30.8630
0792 1400684814 31.0195
0793 1400687255 31.1818
0794 1400689697 31.3226
0795 1400692138 37.4242
0796 1400694580 42.1731
0797 1400697021 34.4520
0798 1400699462 30.8901
0799 1400701904 31.1105
0800 1400704345 30.7292
0801 1400706787 30.9438
0802 1400709228 31.5627
0803 1400711669 31.0245
0804 1400714111 31.3839
0805 1400716552 33.7699
0806 1400718994 32.1654
0807 1400721435 30.9592
0808 1400723876 31.2896
0809 1400726318 30.9463
0810 1400728759 30.8185
0811 1400731201 31.1038
0812 1400733642 31.0906
0813 1400736083 30.8495
0814 1400738525 31.1043
0815 1400740966 31.1077
0816 1400743408 30.5118
0817 1400745849 31.1532
0818 1400748291 31.3459
0819 1400750732 30.2946
0820 1400753173 31.0907
0821 1400755615 30.9872
0822 1400758056 30.5864
0823 1400760498 30.6114
0824 1400762939 30.6669
0825 1400765380 30.6254
0826 1400767822 32.6829
0827 1400770263 32.4110
0828 1400772705 30.6462
0829 1400775146 30.4971
0830 1400777587 31.7624
0831 1400780029 30.6534
0832 1400782470 29.9387
0833 1400784912 30.1966
0834 1400787353 29.9307
0835 1400789794 30.1271
0836 1400792236 30.5503
0837 1400794677 30.1029
0838 1400797119 29.5902
0839 1400799560 30.0987
0840 1400802001 29.7496
0841 1400804443 29.4704
0842 1400806884 29.4259
0843 1400809326 29.7297
0844 1400811767 29.2669
0845 1400814208 29.4904
0846 1400816650 29.2096
0847 1400819091 28.9205
0848 1400821533 29.8271
0849 1400823974 30.6438
0850 1400826416 28.8361
0851 1400828857 29.4932
0852 1400831298 29.2440
0853 1400833740 28.7282
0854 1400836181 28.5961
0855 1400838623 29.5338
0856 1400841064 28.6894
0857 1400843505 28.4826
0858 1400845947 28.4475
0859 1400848388 27.9006
0860 1400850830 27.7275
0861 1400853271 28.1406
0862 1400855712 27.8928
0863 1400858154 27.6613
0864 1400860595 27.7118
0865 1400863037 27.4431
0866 1400865478 27.1033
0867 1400867919 27.2965
0868 1400870361 26.9446
0869 1400872802 27.1706
0870 1400875244 26.8793
0871 1400877685 26.7888
0872 1400880126 26.3543
0873 1400882568 26.8789
0874 1400885009 26.8208
0875 1400887451 30.4444
0876 1400889892 28.3636
0877 1400892333 26.5167
0878 1400894775 25.8848
0879 1400897216 26.1249
0880 1400899658 26.5123
0881 1400902099 25.6605
0882 1400904541 25.4122
0883 1400906982 25.3548
0884 1400909423 24.8038
0885 1400911865 24.7678
0886 1400914306 24.7293
0887 1400916748 24.4115
0888 1400919189 24.2326
0889 1400921630 24.6247
0890 1400924072 24.4103
0891 1400926513 24.5241
0892 1400928955 24.7983
0893 1400931396 23.6977
0894 1400933837 23.5373
0895 1400936279 23.5714
0896 1400938720 23.2535
0897 1400941162 23.0261
0898 1400943603 23.5049
0899 1400946044 23.2385
0900 1400948486 22.8038
0901 1400950927 23.0138
0902 1400953369 22.4251
0903 1400955810 21.9801
0904 1400958251 22.5483
0905 1400960693 22.9379
0906 1400963134 21.9002
0907 1400965576 22.3610
0908 1400968017 21.4733
0909 1400970458 21.0222
0910 1400972900 21.0559
0911 1400975341 21.0517
0912 1400977783 20.3562
0913 1400980224 20.5547
0914 1400982666 20.3200
0915 1400985107 20.2178
0916 1400987548 19.8502
0917 1400989990 19.7765
0918 1400992431 19.4172
0919 1400994873 19.5689
0920 1400997314 19.0520
0921 1400999755 18.9778
0922 1401002197 18.6831
0923 1401004638 18.7768
0924 1401007080 18.2979
0925 1401009521 18.3248
0926 1401011962 18.6224
0927 1401014404 17.8774
0928 1401016845 17.7412
0929 1401019287 17.7178
0930 1401021728 17.6941
0931 1401024169 17.0826
0932 1401026611 17.2320
0933 1401029052 17.0733
0934 1401031494 16.6499
0935 1401033935 16.2691
0936 1401036376 16.1479
0937 1401038818 15.8810
0938 1401041259 15.9274
0939 1401043701 15.9861
0940 1401046142 15.4919
0941 1401048583 15.2334
0942 1401051025 15.1364
0943 1401053466 15.0180
0944 1401055908 15.0411
0945 1401058349 14.6126
0946 1401060791 14.4042
0947 1401063232 14.2646
0948 1401065673 14.4197
0949 1401068115 14.0781
0950 1401070556 13.9048
0951 1401072998 13.8612
0952 1401075439 13.5243
0953 1401077880 13.2816
0954 1401080322 13.5823
0955 1401082763 13.8182
0956 1401085205 12.9782
0957 1401087646 12.8610
0958 1401090087 12.6104
0959 1401092529 12.2650
0960 1401094970 12.3574
0961 1401097412 12.6115
0962 1401099853 12.0032
0963 1401102294 11.7230
0964 1401104736 11.4546
0965 1401107177 11.3161
0966 1401109619 11.1800
0967 1401112060 11.2158
0968 1401114501 10.9357
0969 1401116943 10.8298
0970 1401119384 10.6629
0971 1401121826 10.5734
0972 1401124267 10.6078
0973 1401126708 10.5687
0974 1401129150 10.3063
0975 1401131591 10.2364
0976 1401134033 10.2330
0977 1401136474 9.7662
0978 1401138916 9.5307
0979 1401141357 9.6694
0980 1401143798 9.4204
0981 1401146240 9.2081
0982 1401148681 9.2439
0983 1401151123 9.0331
0984 1401153564 8.8976
0985 1401156005 8.7628
0986 1401158447 8.7235
0987 1401160888 8.5681
0988 1401163330 8.5730
0989 1401165771 8.3512
0990 1401168212 8.2409
0991 1401170654 8.2291
0992 1401173095 8.1992
0993 1401175537 8.1125
0994 1401177978 8.0448
0995 1401180419 7.9808
0996 1401182861 7.7283
0997 1401185302 7.7175
0998 1401187744 7.9150
0999 1401190185 7.6913
1000 1401192626 7.5720
1001 1401195068 7.7622
1002 1401197509 11.2408
1003 1401199951 8.6149
1004 1401202392 7.5796
1005 1401204833 7.2307
1006 1401207275 7.0363
1007 1401209716 6.9700
1008 1401212158 6.9534
1009 1401214599 7.0337
1010 1401217041 6.8177
1011 1401219482 6.7051
1012 1401221923 6.7835
1013 1401224365 6.7050
1014 1401226806 6.6518
1015 1401229248 6.5920
1016 1401231689 6.5072
1017 1401234130 6.5028
1018 1401236572 6.4590
1019 1401239013 6.4614
1020 1401241455 6.4724
1021 1401243896 6.4379
1022 1401246337 6.4538
1023 1401248779 6.4339
