# File: 20-05-31T225128.ast
# NOTEA     = None Attached.  RTLSDR Dongle Test
# NOTEB     = Spectral Integration
# OBSERVER  = Science Aficionado
# DEVICE    = rtlsdr=0
# DATADIR   = ../data/
# SITE      = None Attached.  RTLSDR Dongle Test
# CITY      = Green Bank
# REGION    = West Virginia
# COUNTRY   = US
# TELTYPE   = Bubble Wrap  Horn
# FRAME     = TOPO
# GAIN1     = 49.0
# GAIN2     = 11.0
# GAIN3     = 11.0
# GAIN4     = 0.0
# Count     = 10000
# CenterFreq= 1400000000.0
# Bandwidth = 2500000.0
# Duration  = 41.957831
# DeltaX    = 5859.375
# TSYS      = 200.0
# TRX       = 100.0
# TRMS      = 2.0
# TINT      = 1.0
# KPERC     = 100.0
# GAINFACT  = 1.0
# BUNIT     = Counts
# NCHAN     = 1024
# NSPEC     = 1
# NTIME     = 0
# NSAMPLES  = 0
# EPEAK     = 4.10875183718
# ERMS      = 0.995973393526
# EMJD      = 58568.808999981004 
# REFCHAN   = 512.0
# REFSAMPL  = 256.0
# NAVE      = 100
# NMEDIAN   = 1024
# Fft_rate  = 5000
# UTC       = 2020-05-31 22:51:28.607610
# SECONDS   =       0.0000000000 
# LST       = 10:11:40.380
# AZ        = 180.0
# EL        = 90.0
# TELLON    = -79:50:22.920
# TELLAT    = +38:25:59.160
# RA        = 10:09:16.380
# DEC       = +38:37:49.300
# GALLON    = 183:38:04.40
# GALLAT    = +54:23:29.50
# ALT_SUN   = +18:24:17.4
# AZ_SUN    = +284:01:11.4
# ETAA      = 0.8
# ETAB      = 0.99
# POLANGLE  = 0.0
# TELSIZEAM = 1.0
# TELSIZEBM = 1.0
# AST_VERS  = 05.01
0000 1398751220 6.0731
0001 1398753662 6.0157
0002 1398756103 6.1065
0003 1398758544 6.2270
0004 1398760986 6.1895
0005 1398763427 6.1760
0006 1398765869 6.0380
0007 1398768310 6.0035
0008 1398770751 5.9650
0009 1398773193 6.0071
0010 1398775634 6.1633
0011 1398778076 6.2357
0012 1398780517 6.1553
0013 1398782958 6.1427
0014 1398785400 6.1431
0015 1398787841 6.4277
0016 1398790283 6.3344
0017 1398792724 6.3434
0018 1398795166 6.6370
0019 1398797607 9.6216
0020 1398800048 7.5919
0021 1398802490 6.6026
0022 1398804931 6.5725
0023 1398807373 6.5190
0024 1398809814 6.6805
0025 1398812255 6.6489
0026 1398814697 6.7988
0027 1398817138 6.7846
0028 1398819580 6.8977
0029 1398822021 6.9447
0030 1398824462 6.9780
0031 1398826904 7.0314
0032 1398829345 7.0851
0033 1398831787 7.1061
0034 1398834228 7.3577
0035 1398836669 7.6743
0036 1398839111 7.4031
0037 1398841552 7.4934
0038 1398843994 7.6977
0039 1398846435 7.6353
0040 1398848876 7.7862
0041 1398851318 7.9290
0042 1398853759 8.0184
0043 1398856201 8.0417
0044 1398858642 8.2260
0045 1398861083 8.1862
0046 1398863525 8.3620
0047 1398865966 8.5267
0048 1398868408 8.5677
0049 1398870849 8.6796
0050 1398873291 8.8746
0051 1398875732 8.9540
0052 1398878173 9.1486
0053 1398880615 9.2706
0054 1398883056 9.1849
0055 1398885498 9.4767
0056 1398887939 9.8711
0057 1398890380 9.6842
0058 1398892822 9.7770
0059 1398895263 10.4876
0060 1398897705 10.8268
0061 1398900146 10.3709
0062 1398902587 10.3734
0063 1398905029 10.3938
0064 1398907470 10.6955
0065 1398909912 10.8508
0066 1398912353 11.0755
0067 1398914794 11.4838
0068 1398917236 11.1629
0069 1398919677 11.3623
0070 1398922119 11.2591
0071 1398924560 11.5379
0072 1398927001 11.9477
0073 1398929443 11.9851
0074 1398931884 11.9519
0075 1398934326 12.0312
0076 1398936767 12.1594
0077 1398939208 12.4204
0078 1398941650 12.7830
0079 1398944091 12.5356
0080 1398946533 12.8919
0081 1398948974 13.1347
0082 1398951416 13.2886
0083 1398953857 13.3275
0084 1398956298 13.9404
0085 1398958740 14.0007
0086 1398961181 13.8527
0087 1398963623 14.0898
0088 1398966064 14.3395
0089 1398968505 14.3682
0090 1398970947 14.6237
0091 1398973388 14.8532
0092 1398975830 14.6610
0093 1398978271 15.2063
0094 1398980712 15.0857
0095 1398983154 15.2382
0096 1398985595 15.5455
0097 1398988037 15.9856
0098 1398990478 15.5496
0099 1398992919 15.9216
0100 1398995361 15.8949
0101 1398997802 15.9086
0102 1399000244 16.4585
0103 1399002685 16.6299
0104 1399005126 16.5818
0105 1399007568 16.9261
0106 1399010009 17.3538
0107 1399012451 17.0546
0108 1399014892 17.1167
0109 1399017333 18.3358
0110 1399019775 17.7494
0111 1399022216 17.6491
0112 1399024658 18.1226
0113 1399027099 18.1638
0114 1399029541 18.0752
0115 1399031982 18.1786
0116 1399034423 18.5205
0117 1399036865 18.5341
0118 1399039306 18.8747
0119 1399041748 18.9842
0120 1399044189 19.0647
0121 1399046630 19.2433
0122 1399049072 19.3330
0123 1399051513 19.4144
0124 1399053955 19.8056
0125 1399056396 20.1730
0126 1399058837 19.9958
0127 1399061279 20.3722
0128 1399063720 20.5454
0129 1399066162 20.2323
0130 1399068603 20.6218
0131 1399071044 20.9266
0132 1399073486 20.6993
0133 1399075927 20.9956
0134 1399078369 21.7836
0135 1399080810 20.9829
0136 1399083251 21.5256
0137 1399085693 21.7862
0138 1399088134 21.8787
0139 1399090576 21.6078
0140 1399093017 22.5644
0141 1399095458 22.8542
0142 1399097900 22.0818
0143 1399100341 22.3062
0144 1399102783 22.4902
0145 1399105224 22.5554
0146 1399107666 22.6487
0147 1399110107 22.8111
0148 1399112548 22.6666
0149 1399114990 22.7583
0150 1399117431 23.2066
0151 1399119873 23.1709
0152 1399122314 23.1464
0153 1399124755 23.4879
0154 1399127197 23.3744
0155 1399129638 23.7280
0156 1399132080 24.2703
0157 1399134521 25.6745
0158 1399136962 26.1490
0159 1399139404 25.6765
0160 1399141845 24.3083
0161 1399144287 24.1094
0162 1399146728 24.4389
0163 1399149169 24.4714
0164 1399151611 24.6468
0165 1399154052 24.8022
0166 1399156494 24.7790
0167 1399158935 24.7666
0168 1399161376 25.1491
0169 1399163818 25.0293
0170 1399166259 25.3889
0171 1399168701 25.6586
0172 1399171142 25.4907
0173 1399173583 25.4818
0174 1399176025 25.5080
0175 1399178466 25.3955
0176 1399180908 25.5312
0177 1399183349 25.7062
0178 1399185791 25.6482
0179 1399188232 25.8721
0180 1399190673 27.2318
0181 1399193115 26.5027
0182 1399195556 25.8682
0183 1399197998 26.8269
0184 1399200439 27.5349
0185 1399202880 26.3965
0186 1399205322 26.6600
0187 1399207763 27.5685
0188 1399210205 26.8282
0189 1399212646 26.6161
0190 1399215087 26.7731
0191 1399217529 26.4042
0192 1399219970 26.5174
0193 1399222412 27.1238
0194 1399224853 26.5365
0195 1399227294 26.4973
0196 1399229736 26.6884
0197 1399232177 26.7895
0198 1399234619 26.8137
0199 1399237060 27.1744
0200 1399239501 26.9348
0201 1399241943 27.2622
0202 1399244384 28.0908
0203 1399246826 27.5201
0204 1399249267 26.8068
0205 1399251708 27.0608
0206 1399254150 27.1922
0207 1399256591 27.2398
0208 1399259033 27.8172
0209 1399261474 27.8037
0210 1399263916 27.3177
0211 1399266357 27.1945
0212 1399268798 27.2245
0213 1399271240 27.3688
0214 1399273681 28.0745
0215 1399276123 27.9955
0216 1399278564 27.1217
0217 1399281005 27.3225
0218 1399283447 27.3382
0219 1399285888 27.7989
0220 1399288330 28.1401
0221 1399290771 27.3782
0222 1399293212 27.0679
0223 1399295654 27.3849
0224 1399298095 27.9167
0225 1399300537 27.6507
0226 1399302978 27.6699
0227 1399305419 28.1941
0228 1399307861 28.1233
0229 1399310302 27.7200
0230 1399312744 28.8414
0231 1399315185 27.9831
0232 1399317626 27.5586
0233 1399320068 28.3280
0234 1399322509 28.3271
0235 1399324951 27.5212
0236 1399327392 28.2434
0237 1399329833 32.0159
0238 1399332275 29.1449
0239 1399334716 27.6948
0240 1399337158 28.1703
0241 1399339599 27.9308
0242 1399342041 27.8173
0243 1399344482 28.0243
0244 1399346923 27.3188
0245 1399349365 27.5130
0246 1399351806 28.1227
0247 1399354248 27.5347
0248 1399356689 27.5991
0249 1399359130 27.7651
0250 1399361572 27.8923
0251 1399364013 27.9682
0252 1399366455 28.2450
0253 1399368896 28.9108
0254 1399371337 27.9820
0255 1399373779 28.2627
0256 1399376220 27.5510
0257 1399378662 27.7028
0258 1399381103 28.5597
0259 1399383544 27.6795
0260 1399385986 27.4770
0261 1399388427 27.5196
0262 1399390869 27.6225
0263 1399393310 27.4743
0264 1399395751 27.9319
0265 1399398193 27.6762
0266 1399400634 27.7706
0267 1399403076 27.8908
0268 1399405517 27.4874
0269 1399407958 27.5170
0270 1399410400 27.8815
0271 1399412841 27.8914
0272 1399415283 27.4118
0273 1399417724 27.2025
0274 1399420166 27.4921
0275 1399422607 27.3090
0276 1399425048 27.5517
0277 1399427490 27.9462
0278 1399429931 27.2694
0279 1399432373 27.6881
0280 1399434814 28.1675
0281 1399437255 27.3186
0282 1399439697 27.5943
0283 1399442138 28.5121
0284 1399444580 27.6306
0285 1399447021 27.0011
0286 1399449462 27.3311
0287 1399451904 27.9943
0288 1399454345 27.5383
0289 1399456787 27.4506
0290 1399459228 27.4152
0291 1399461669 27.1510
0292 1399464111 27.5247
0293 1399466552 27.1822
0294 1399468994 26.9986
0295 1399471435 27.4336
0296 1399473876 27.7447
0297 1399476318 27.3065
0298 1399478759 27.1885
0299 1399481201 27.4040
0300 1399483642 27.2384
0301 1399486083 27.6549
0302 1399488525 27.5844
0303 1399490966 27.2902
0304 1399493408 27.6080
0305 1399495849 28.1510
0306 1399498291 27.6088
0307 1399500732 28.5982
0308 1399503173 27.8601
0309 1399505615 27.2716
0310 1399508056 26.9981
0311 1399510498 27.3020
0312 1399512939 27.3729
0313 1399515380 27.1429
0314 1399517822 27.2473
0315 1399520263 27.3125
0316 1399522705 27.1908
0317 1399525146 27.5235
0318 1399527587 27.4434
0319 1399530029 27.3965
0320 1399532470 27.4489
0321 1399534912 27.4970
0322 1399537353 27.4021
0323 1399539794 27.5408
0324 1399542236 27.5443
0325 1399544677 27.2288
0326 1399547119 27.7703
0327 1399549560 27.6489
0328 1399552001 27.0345
0329 1399554443 28.3251
0330 1399556884 28.5255
0331 1399559326 27.9240
0332 1399561767 28.1065
0333 1399564208 29.3111
0334 1399566650 27.6414
0335 1399569091 27.3344
0336 1399571533 27.7556
0337 1399573974 27.2032
0338 1399576416 27.2425
0339 1399578857 27.3692
0340 1399581298 27.2318
0341 1399583740 27.4781
0342 1399586181 28.1685
0343 1399588623 28.1840
0344 1399591064 27.9753
0345 1399593505 28.2497
0346 1399595947 27.8716
0347 1399598388 27.5707
0348 1399600830 27.7326
0349 1399603271 28.0831
0350 1399605712 28.2640
0351 1399608154 28.1276
0352 1399610595 27.9605
0353 1399613037 27.9963
0354 1399615478 28.2659
0355 1399617919 28.4998
0356 1399620361 28.7234
0357 1399622802 29.1619
0358 1399625244 30.1050
0359 1399627685 28.2731
0360 1399630126 28.2804
0361 1399632568 28.6664
0362 1399635009 28.2425
0363 1399637451 28.7446
0364 1399639892 28.3089
0365 1399642333 28.3102
0366 1399644775 28.6226
0367 1399647216 28.9998
0368 1399649658 28.5706
0369 1399652099 28.5179
0370 1399654541 28.7886
0371 1399656982 28.8161
0372 1399659423 28.7132
0373 1399661865 28.8449
0374 1399664306 28.4543
0375 1399666748 28.6427
0376 1399669189 29.1395
0377 1399671630 29.0216
0378 1399674072 28.9838
0379 1399676513 31.8937
0380 1399678955 30.6968
0381 1399681396 29.6979
0382 1399683837 30.6777
0383 1399686279 30.7832
0384 1399688720 28.8782
0385 1399691162 29.4349
0386 1399693603 30.0999
0387 1399696044 29.3151
0388 1399698486 29.5915
0389 1399700927 29.6096
0390 1399703369 29.2857
0391 1399705810 29.3983
0392 1399708251 29.6405
0393 1399710693 29.7053
0394 1399713134 29.7063
0395 1399715576 30.1546
0396 1399718017 30.0316
0397 1399720458 30.9848
0398 1399722900 30.4303
0399 1399725341 30.0379
0400 1399727783 29.7758
0401 1399730224 29.9630
0402 1399732666 29.8425
0403 1399735107 30.1134
0404 1399737548 30.2682
0405 1399739990 29.8853
0406 1399742431 30.1028
0407 1399744873 31.6606
0408 1399747314 32.1583
0409 1399749755 33.9794
0410 1399752197 32.8130
0411 1399754638 30.6360
0412 1399757080 31.2518
0413 1399759521 31.1143
0414 1399761962 30.4555
0415 1399764404 30.6189
0416 1399766845 30.9561
0417 1399769287 30.8206
0418 1399771728 30.6968
0419 1399774169 30.8332
0420 1399776611 31.5949
0421 1399779052 31.3112
0422 1399781494 30.9758
0423 1399783935 31.1045
0424 1399786376 31.2809
0425 1399788818 31.1498
0426 1399791259 33.0634
0427 1399793701 35.7503
0428 1399796142 31.5710
0429 1399798583 32.0171
0430 1399801025 32.0056
0431 1399803466 31.9848
0432 1399805908 32.6157
0433 1399808349 32.8729
0434 1399810791 31.9734
0435 1399813232 32.1552
0436 1399815673 32.1617
0437 1399818115 31.7717
0438 1399820556 32.4378
0439 1399822998 32.6346
0440 1399825439 32.2983
0441 1399827880 32.4302
0442 1399830322 32.5959
0443 1399832763 32.2798
0444 1399835205 32.4200
0445 1399837646 32.3948
0446 1399840087 32.5740
0447 1399842529 33.1572
0448 1399844970 34.3677
0449 1399847412 33.4035
0450 1399849853 32.1541
0451 1399852294 32.1338
0452 1399854736 32.5419
0453 1399857177 33.0861
0454 1399859619 33.6952
0455 1399862060 32.9127
0456 1399864501 33.3030
0457 1399866943 34.8210
0458 1399869384 33.5038
0459 1399871826 33.2329
0460 1399874267 33.2185
0461 1399876708 33.1241
0462 1399879150 32.8441
0463 1399881591 33.4355
0464 1399884033 33.6701
0465 1399886474 33.7302
0466 1399888916 33.7593
0467 1399891357 33.4385
0468 1399893798 33.7617
0469 1399896240 58.3681
0470 1399898681 64.5306
0471 1399901123 34.5473
0472 1399903564 34.3184
0473 1399906005 33.8406
0474 1399908447 33.8148
0475 1399910888 33.9635
0476 1399913330 35.1953
0477 1399915771 35.1522
0478 1399918212 34.4416
0479 1399920654 34.4586
0480 1399923095 34.0831
0481 1399925537 33.9918
0482 1399927978 34.7593
0483 1399930419 34.5356
0484 1399932861 34.7922
0485 1399935302 35.2266
0486 1399937744 34.7876
0487 1399940185 35.1251
0488 1399942626 34.9458
0489 1399945068 34.8097
0490 1399947509 34.9708
0491 1399949951 35.2874
0492 1399952392 35.3822
0493 1399954833 34.8193
0494 1399957275 35.8495
0495 1399959716 35.7716
0496 1399962158 35.4532
0497 1399964599 35.5632
0498 1399967041 35.7620
0499 1399969482 35.8894
0500 1399971923 36.4987
0501 1399974365 39.0793
0502 1399976806 45.4913
0503 1399979248 59.1734
0504 1399981689 42.3291
0505 1399984130 38.5144
0506 1399986572 59.4625
0507 1399989013 81.0718
0508 1399991455 59.1863
0509 1399993896 53.6844
0510 1399996337 377.1231
0511 1399998779 618.4297
0512 1400001220 74.6486
0513 1400003662 43.7782
0514 1400006103 41.0280
0515 1400008544 38.5215
0516 1400010986 39.7503
0517 1400013427 44.6734
0518 1400015869 45.4411
0519 1400018310 36.7310
0520 1400020751 39.9743
0521 1400023193 41.9745
0522 1400025634 37.0872
0523 1400028076 36.7025
0524 1400030517 36.3271
0525 1400032958 36.6153
0526 1400035400 35.9855
0527 1400037841 36.1628
0528 1400040283 36.4264
0529 1400042724 35.4989
0530 1400045166 35.1922
0531 1400047607 37.9482
0532 1400050048 36.4921
0533 1400052490 34.8709
0534 1400054931 35.3196
0535 1400057373 34.7221
0536 1400059814 34.7644
0537 1400062255 34.5748
0538 1400064697 34.4343
0539 1400067138 34.2754
0540 1400069580 34.0176
0541 1400072021 34.7111
0542 1400074462 34.1125
0543 1400076904 33.9878
0544 1400079345 34.2100
0545 1400081787 34.2191
0546 1400084228 34.5780
0547 1400086669 36.1932
0548 1400089111 34.7059
0549 1400091552 34.1995
0550 1400093994 34.1736
0551 1400096435 34.3222
0552 1400098876 33.5951
0553 1400101318 33.5734
0554 1400103759 33.9667
0555 1400106201 33.9714
0556 1400108642 38.5565
0557 1400111083 36.1603
0558 1400113525 33.4965
0559 1400115966 33.8453
0560 1400118408 33.7878
0561 1400120849 33.2988
0562 1400123291 33.4583
0563 1400125732 33.5929
0564 1400128173 33.4518
0565 1400130615 32.8846
0566 1400133056 33.3532
0567 1400135498 32.9926
0568 1400137939 32.9342
0569 1400140380 33.0999
0570 1400142822 32.8742
0571 1400145263 33.1873
0572 1400147705 33.6901
0573 1400150146 33.4427
0574 1400152587 32.7947
0575 1400155029 33.5463
0576 1400157470 33.1124
0577 1400159912 32.8846
0578 1400162353 33.9604
0579 1400164794 33.2372
0580 1400167236 33.2183
0581 1400169677 33.0098
0582 1400172119 33.0787
0583 1400174560 32.4057
0584 1400177001 32.3402
0585 1400179443 32.4639
0586 1400181884 32.0471
0587 1400184326 32.3736
0588 1400186767 33.4310
0589 1400189208 32.3278
0590 1400191650 32.1380
0591 1400194091 32.0849
0592 1400196533 31.8452
0593 1400198974 31.9637
0594 1400201416 32.2170
0595 1400203857 32.1403
0596 1400206298 32.4205
0597 1400208740 32.7883
0598 1400211181 32.0502
0599 1400213623 31.7807
0600 1400216064 32.2281
0601 1400218505 31.5324
0602 1400220947 31.2914
0603 1400223388 31.5019
0604 1400225830 31.2010
0605 1400228271 30.7961
0606 1400230712 31.6583
0607 1400233154 31.5760
0608 1400235595 31.1561
0609 1400238037 31.0587
0610 1400240478 30.9948
0611 1400242919 31.0436
0612 1400245361 30.9076
0613 1400247802 31.1600
0614 1400250244 30.8418
0615 1400252685 31.1236
0616 1400255126 31.3979
0617 1400257568 32.2254
0618 1400260009 34.5920
0619 1400262451 30.7457
0620 1400264892 30.5324
0621 1400267333 30.4447
0622 1400269775 30.7567
0623 1400272216 30.4495
0624 1400274658 30.5762
0625 1400277099 31.0151
0626 1400279541 30.3431
0627 1400281982 30.6193
0628 1400284423 31.8028
0629 1400286865 30.5567
0630 1400289306 30.2873
0631 1400291748 31.7785
0632 1400294189 30.6508
0633 1400296630 29.9937
0634 1400299072 29.9531
0635 1400301513 30.9316
0636 1400303955 32.4041
0637 1400306396 30.3079
0638 1400308837 29.9441
0639 1400311279 29.4904
0640 1400313720 29.7618
0641 1400316162 29.9160
0642 1400318603 29.4790
0643 1400321044 29.9147
0644 1400323486 29.6253
0645 1400325927 29.2765
0646 1400328369 29.6271
0647 1400330810 29.6562
0648 1400333251 29.2062
0649 1400335693 29.4705
0650 1400338134 29.4087
0651 1400340576 29.3966
0652 1400343017 30.6724
0653 1400345458 31.2564
0654 1400347900 29.0336
0655 1400350341 28.7802
0656 1400352783 29.8162
0657 1400355224 29.3833
0658 1400357666 28.9004
0659 1400360107 29.0176
0660 1400362548 29.1981
0661 1400364990 28.7903
0662 1400367431 28.7809
0663 1400369873 28.5932
0664 1400372314 28.5338
0665 1400374755 28.9265
0666 1400377197 29.4426
0667 1400379638 29.9055
0668 1400382080 28.7025
0669 1400384521 28.6926
0670 1400386962 29.1134
0671 1400389404 29.4766
0672 1400391845 28.8892
0673 1400394287 28.8000
0674 1400396728 28.9783
0675 1400399169 29.1039
0676 1400401611 28.6100
0677 1400404052 28.5244
0678 1400406494 29.1284
0679 1400408935 28.2659
0680 1400411376 28.8389
0681 1400413818 30.6416
0682 1400416259 29.2107
0683 1400418701 28.2716
0684 1400421142 28.6720
0685 1400423583 28.4817
0686 1400426025 28.4014
0687 1400428466 28.8426
0688 1400430908 28.6483
0689 1400433349 28.2640
0690 1400435791 28.2812
0691 1400438232 28.1658
0692 1400440673 27.8269
0693 1400443115 28.6145
0694 1400445556 28.4771
0695 1400447998 27.9615
0696 1400450439 28.4211
0697 1400452880 28.6114
0698 1400455322 28.1838
0699 1400457763 28.5522
0700 1400460205 28.2790
0701 1400462646 28.2682
0702 1400465087 29.3651
0703 1400467529 29.2917
0704 1400469970 28.2371
0705 1400472412 28.8452
0706 1400474853 29.8261
0707 1400477294 28.7009
0708 1400479736 28.1998
0709 1400482177 28.2623
0710 1400484619 28.2292
0711 1400487060 28.6707
0712 1400489501 28.7687
0713 1400491943 28.1199
0714 1400494384 28.2022
0715 1400496826 29.6492
0716 1400499267 29.9356
0717 1400501708 28.6206
0718 1400504150 28.6913
0719 1400506591 28.5776
0720 1400509033 28.2278
0721 1400511474 28.3718
0722 1400513916 28.1884
0723 1400516357 28.2788
0724 1400518798 28.4208
0725 1400521240 28.4427
0726 1400523681 28.6288
0727 1400526123 29.3515
0728 1400528564 28.9035
0729 1400531005 28.3865
0730 1400533447 29.4027
0731 1400535888 29.8413
0732 1400538330 29.5066
0733 1400540771 28.9524
0734 1400543212 28.9257
0735 1400545654 28.4733
0736 1400548095 28.4224
0737 1400550537 28.6778
0738 1400552978 28.5486
0739 1400555419 28.9223
0740 1400557861 29.4750
0741 1400560302 28.7811
0742 1400562744 28.5889
0743 1400565185 28.8211
0744 1400567626 28.6398
0745 1400570068 28.4623
0746 1400572509 28.7718
0747 1400574951 28.5773
0748 1400577392 28.8535
0749 1400579833 29.1346
0750 1400582275 28.9753
0751 1400584716 28.8308
0752 1400587158 30.1293
0753 1400589599 29.1354
0754 1400592041 28.9632
0755 1400594482 30.7489
0756 1400596923 31.4430
0757 1400599365 28.9733
0758 1400601806 28.9799
0759 1400604248 29.0377
0760 1400606689 28.5975
0761 1400609130 28.7447
0762 1400611572 29.0997
0763 1400614013 28.9890
0764 1400616455 28.8923
0765 1400618896 29.1359
0766 1400621337 29.0052
0767 1400623779 29.0261
0768 1400626220 29.6995
0769 1400628662 28.8899
0770 1400631103 28.6715
0771 1400633544 28.9738
0772 1400635986 28.9444
0773 1400638427 29.3487
0774 1400640869 29.8952
0775 1400643310 29.1823
0776 1400645751 29.1567
0777 1400648193 30.0308
0778 1400650634 28.9161
0779 1400653076 29.0752
0780 1400655517 29.7006
0781 1400657958 29.5493
0782 1400660400 28.6235
0783 1400662841 29.5094
0784 1400665283 29.2487
0785 1400667724 29.1991
0786 1400670166 29.6204
0787 1400672607 36.2268
0788 1400675048 48.1076
0789 1400677490 31.1387
0790 1400679931 29.3125
0791 1400682373 29.3460
0792 1400684814 29.2385
0793 1400687255 29.4155
0794 1400689697 29.1867
0795 1400692138 33.4857
0796 1400694580 37.8966
0797 1400697021 31.6333
0798 1400699462 29.3227
0799 1400701904 29.2028
0800 1400704345 29.2355
0801 1400706787 29.4941
0802 1400709228 29.6258
0803 1400711669 28.9440
0804 1400714111 29.4779
0805 1400716552 31.2777
0806 1400718994 29.8674
0807 1400721435 28.7069
0808 1400723876 29.3462
0809 1400726318 29.1046
0810 1400728759 29.1589
0811 1400731201 29.0759
0812 1400733642 29.2162
0813 1400736083 28.6684
0814 1400738525 29.0185
0815 1400740966 29.1498
0816 1400743408 28.6326
0817 1400745849 29.4437
0818 1400748291 29.5122
0819 1400750732 28.6791
0820 1400753173 28.8774
0821 1400755615 28.8661
0822 1400758056 28.6844
0823 1400760498 28.6914
0824 1400762939 28.8569
0825 1400765380 28.8263
0826 1400767822 30.3844
0827 1400770263 29.8319
0828 1400772705 28.1666
0829 1400775146 28.3591
0830 1400777587 29.5219
0831 1400780029 28.8067
0832 1400782470 28.0245
0833 1400784912 28.4006
0834 1400787353 28.1346
0835 1400789794 28.2026
0836 1400792236 28.4663
0837 1400794677 27.8826
0838 1400797119 28.0641
0839 1400799560 28.1080
0840 1400802001 27.9466
0841 1400804443 27.7622
0842 1400806884 27.8595
0843 1400809326 27.6973
0844 1400811767 27.2161
0845 1400814208 27.8359
0846 1400816650 27.4860
0847 1400819091 27.3108
0848 1400821533 27.9655
0849 1400823974 28.3654
0850 1400826416 27.1165
0851 1400828857 27.5835
0852 1400831298 27.3501
0853 1400833740 26.6619
0854 1400836181 26.7892
0855 1400838623 27.4693
0856 1400841064 26.7535
0857 1400843505 26.7220
0858 1400845947 26.5890
0859 1400848388 26.2773
0860 1400850830 26.2774
0861 1400853271 26.3947
0862 1400855712 26.1654
0863 1400858154 25.8817
0864 1400860595 25.8757
0865 1400863037 25.6180
0866 1400865478 25.5947
0867 1400867919 25.3844
0868 1400870361 25.4967
0869 1400872802 25.3778
0870 1400875244 25.2631
0871 1400877685 25.2237
0872 1400880126 25.1354
0873 1400882568 25.2725
0874 1400885009 24.9803
0875 1400887451 28.1036
0876 1400889892 26.4292
0877 1400892333 24.7782
0878 1400894775 24.4674
0879 1400897216 24.2889
0880 1400899658 24.8972
0881 1400902099 24.1243
0882 1400904541 24.1337
0883 1400906982 23.5890
0884 1400909423 23.5256
0885 1400911865 23.4897
0886 1400914306 23.5932
0887 1400916748 23.1574
0888 1400919189 23.0695
0889 1400921630 23.0310
0890 1400924072 22.6319
0891 1400926513 23.1431
0892 1400928955 23.3483
0893 1400931396 22.5363
0894 1400933837 21.9814
0895 1400936279 21.9374
0896 1400938720 21.5687
0897 1400941162 21.3604
0898 1400943603 21.8402
0899 1400946044 21.7354
0900 1400948486 21.4188
0901 1400950927 21.5152
0902 1400953369 21.2774
0903 1400955810 20.6662
0904 1400958251 21.2135
0905 1400960693 21.4708
0906 1400963134 20.4966
0907 1400965576 21.2965
0908 1400968017 20.2474
0909 1400970458 19.9365
0910 1400972900 19.9997
0911 1400975341 19.7698
0912 1400977783 19.5563
0913 1400980224 19.4300
0914 1400982666 18.9737
0915 1400985107 18.8024
0916 1400987548 18.6559
0917 1400989990 18.5583
0918 1400992431 18.5081
0919 1400994873 18.2236
0920 1400997314 18.1846
0921 1400999755 17.9553
0922 1401002197 17.7508
0923 1401004638 17.6774
0924 1401007080 17.3308
0925 1401009521 17.3878
0926 1401011962 17.3347
0927 1401014404 16.7240
0928 1401016845 16.6232
0929 1401019287 16.6308
0930 1401021728 16.5629
0931 1401024169 16.0893
0932 1401026611 16.0652
0933 1401029052 16.0211
0934 1401031494 15.6678
0935 1401033935 15.3633
0936 1401036376 15.0771
0937 1401038818 14.9548
0938 1401041259 14.7995
0939 1401043701 14.9204
0940 1401046142 14.4817
0941 1401048583 14.1581
0942 1401051025 14.1143
0943 1401053466 14.0420
0944 1401055908 13.9263
0945 1401058349 13.7849
0946 1401060791 13.5205
0947 1401063232 13.3762
0948 1401065673 13.3982
0949 1401068115 13.2240
0950 1401070556 13.0048
0951 1401072998 12.9468
0952 1401075439 12.6971
0953 1401077880 12.4082
0954 1401080322 12.6835
0955 1401082763 12.6788
0956 1401085205 12.0381
0957 1401087646 12.1525
0958 1401090087 11.7742
0959 1401092529 11.5400
0960 1401094970 11.3907
0961 1401097412 11.6347
0962 1401099853 11.1853
0963 1401102294 11.0748
0964 1401104736 10.8538
0965 1401107177 10.6775
0966 1401109619 10.5363
0967 1401112060 10.4193
0968 1401114501 10.1519
0969 1401116943 10.0219
0970 1401119384 10.0612
0971 1401121826 9.9260
0972 1401124267 9.9006
0973 1401126708 9.8553
0974 1401129150 9.6204
0975 1401131591 9.4888
0976 1401134033 9.5698
0977 1401136474 9.1608
0978 1401138916 8.9575
0979 1401141357 9.0533
0980 1401143798 8.8102
0981 1401146240 8.5545
0982 1401148681 8.5223
0983 1401151123 8.4778
0984 1401153564 8.3714
0985 1401156005 8.2211
0986 1401158447 8.0495
0987 1401160888 8.0828
0988 1401163330 7.9472
0989 1401165771 7.8154
0990 1401168212 7.7485
0991 1401170654 7.5913
0992 1401173095 7.6259
0993 1401175537 7.4974
0994 1401177978 7.4919
0995 1401180419 7.4353
0996 1401182861 7.1576
0997 1401185302 7.1547
0998 1401187744 7.4130
0999 1401190185 7.1181
1000 1401192626 7.1675
1001 1401195068 7.2782
1002 1401197509 10.2770
1003 1401199951 8.1916
1004 1401202392 7.1062
1005 1401204833 6.7820
1006 1401207275 6.5410
1007 1401209716 6.5496
1008 1401212158 6.5211
1009 1401214599 6.6145
1010 1401217041 6.3613
1011 1401219482 6.3173
1012 1401221923 6.2753
1013 1401224365 6.2871
1014 1401226806 6.2474
1015 1401229248 6.1259
1016 1401231689 6.0566
1017 1401234130 6.1404
1018 1401236572 6.1120
1019 1401239013 6.1325
1020 1401241455 6.0711
1021 1401243896 6.0893
1022 1401246337 6.0197
1023 1401248779 6.0500
