# File: 20-05-31T224716.ast
# NOTEA     = None Attached.  RTLSDR Dongle Test
# NOTEB     = Spectral Integration
# OBSERVER  = Science Aficionado
# DEVICE    = rtlsdr=0
# DATADIR   = ../data/
# SITE      = None Attached.  RTLSDR Dongle Test
# CITY      = Green Bank
# REGION    = West Virginia
# COUNTRY   = US
# TELTYPE   = Bubble Wrap  Horn
# FRAME     = TOPO
# GAIN1     = 49.0
# GAIN2     = 11.0
# GAIN3     = 11.0
# GAIN4     = 0.0
# Count     = 10000
# CenterFreq= 1400000000.0
# Bandwidth = 2500000.0
# Duration  = 41.953423
# DeltaX    = 5859.375
# TSYS      = 200.0
# TRX       = 100.0
# TRMS      = 2.0
# TINT      = 1.0
# KPERC     = 100.0
# GAINFACT  = 1.0
# BUNIT     = Counts
# NCHAN     = 1024
# NSPEC     = 1
# NTIME     = 0
# NSAMPLES  = 0
# EPEAK     = 4.10875183718
# ERMS      = 0.995973393526
# EMJD      = 58568.808999981004 
# REFCHAN   = 512.0
# REFSAMPL  = 256.0
# NAVE      = 100
# NMEDIAN   = 1024
# Fft_rate  = 5000
# UTC       = 2020-05-31 22:47:16.888237
# SECONDS   =       0.0000000000 
# LST       = 10:07:27.970
# AZ        = 180.0
# EL        = 90.0
# TELLON    = -79:50:22.920
# TELLAT    = +38:25:59.160
# RA        = 10:05:03.300
# DEC       = +38:37:42.400
# GALLON    = 183:47:13.70
# GALLAT    = +53:34:21.50
# ALT_SUN   = +19:12:01.9
# AZ_SUN    = +283:26:01.7
# ETAA      = 0.8
# ETAB      = 0.99
# POLANGLE  = 0.0
# TELSIZEAM = 1.0
# TELSIZEBM = 1.0
# AST_VERS  = 05.01
0000 1398751220 6.8148
0001 1398753662 6.7042
0002 1398756103 6.7393
0003 1398758544 6.8453
0004 1398760986 6.8086
0005 1398763427 6.8708
0006 1398765869 6.7278
0007 1398768310 6.6235
0008 1398770751 6.7035
0009 1398773193 6.8006
0010 1398775634 6.9022
0011 1398778076 6.8227
0012 1398780517 6.7956
0013 1398782958 6.8322
0014 1398785400 6.8442
0015 1398787841 7.1426
0016 1398790283 7.0087
0017 1398792724 7.0207
0018 1398795166 7.3994
0019 1398797607 10.6838
0020 1398800048 8.1770
0021 1398802490 7.1319
0022 1398804931 7.2495
0023 1398807373 7.2680
0024 1398809814 7.3946
0025 1398812255 7.3991
0026 1398814697 7.3880
0027 1398817138 7.4792
0028 1398819580 7.5852
0029 1398822021 7.6685
0030 1398824462 7.6025
0031 1398826904 7.7267
0032 1398829345 7.7875
0033 1398831787 7.8485
0034 1398834228 8.1388
0035 1398836669 8.3839
0036 1398839111 8.0756
0037 1398841552 8.2465
0038 1398843994 8.4558
0039 1398846435 8.4081
0040 1398848876 8.5787
0041 1398851318 8.7206
0042 1398853759 8.7626
0043 1398856201 8.9591
0044 1398858642 9.0783
0045 1398861083 9.0409
0046 1398863525 9.2466
0047 1398865966 9.3915
0048 1398868408 9.4473
0049 1398870849 9.4443
0050 1398873291 9.8321
0051 1398875732 9.6956
0052 1398878173 10.0334
0053 1398880615 10.1433
0054 1398883056 10.1979
0055 1398885498 10.3681
0056 1398887939 11.0476
0057 1398890380 10.6395
0058 1398892822 10.7054
0059 1398895263 11.5383
0060 1398897705 11.6679
0061 1398900146 11.1218
0062 1398902587 11.3810
0063 1398905029 11.4135
0064 1398907470 11.7033
0065 1398909912 11.9356
0066 1398912353 12.2395
0067 1398914794 12.9868
0068 1398917236 12.4310
0069 1398919677 12.4602
0070 1398922119 12.5376
0071 1398924560 12.8955
0072 1398927001 13.3060
0073 1398929443 13.0315
0074 1398931884 13.1933
0075 1398934326 13.3551
0076 1398936767 13.4262
0077 1398939208 13.6701
0078 1398941650 14.0618
0079 1398944091 13.9077
0080 1398946533 14.0719
0081 1398948974 14.4479
0082 1398951416 14.4599
0083 1398953857 14.7082
0084 1398956298 15.5965
0085 1398958740 15.2276
0086 1398961181 15.3584
0087 1398963623 15.2881
0088 1398966064 15.5743
0089 1398968505 15.7118
0090 1398970947 16.2124
0091 1398973388 16.3506
0092 1398975830 15.9928
0093 1398978271 16.6933
0094 1398980712 16.8097
0095 1398983154 16.5943
0096 1398985595 16.9668
0097 1398988037 17.6107
0098 1398990478 17.2449
0099 1398992919 17.3768
0100 1398995361 17.6177
0101 1398997802 17.5998
0102 1399000244 17.8916
0103 1399002685 18.3343
0104 1399005126 18.4905
0105 1399007568 18.6090
0106 1399010009 18.9981
0107 1399012451 18.8018
0108 1399014892 19.1094
0109 1399017333 20.3798
0110 1399019775 19.6826
0111 1399022216 19.5047
0112 1399024658 19.8952
0113 1399027099 19.9444
0114 1399029541 20.0441
0115 1399031982 20.0968
0116 1399034423 20.2920
0117 1399036865 20.4810
0118 1399039306 20.6791
0119 1399041748 20.7588
0120 1399044189 20.8735
0121 1399046630 21.3529
0122 1399049072 21.4547
0123 1399051513 21.3113
0124 1399053955 21.6091
0125 1399056396 22.1175
0126 1399058837 21.8641
0127 1399061279 22.4885
0128 1399063720 22.6457
0129 1399066162 22.3121
0130 1399068603 22.4752
0131 1399071044 23.1589
0132 1399073486 22.6943
0133 1399075927 22.9608
0134 1399078369 24.2226
0135 1399080810 23.2512
0136 1399083251 23.4731
0137 1399085693 24.1209
0138 1399088134 24.2501
0139 1399090576 24.1334
0140 1399093017 24.7494
0141 1399095458 25.2007
0142 1399097900 24.0836
0143 1399100341 24.5400
0144 1399102783 24.6558
0145 1399105224 24.9289
0146 1399107666 24.8741
0147 1399110107 25.0112
0148 1399112548 24.7867
0149 1399114990 25.1424
0150 1399117431 25.2516
0151 1399119873 25.3447
0152 1399122314 25.6730
0153 1399124755 25.7564
0154 1399127197 25.7681
0155 1399129638 26.2303
0156 1399132080 26.4001
0157 1399134521 28.2079
0158 1399136962 28.7795
0159 1399139404 28.3390
0160 1399141845 26.8121
0161 1399144287 26.6644
0162 1399146728 27.2065
0163 1399149169 27.3428
0164 1399151611 27.0247
0165 1399154052 27.5946
0166 1399156494 27.0866
0167 1399158935 27.1559
0168 1399161376 27.1984
0169 1399163818 27.4863
0170 1399166259 27.3487
0171 1399168701 28.1176
0172 1399171142 27.9612
0173 1399173583 27.9186
0174 1399176025 28.0226
0175 1399178466 28.3902
0176 1399180908 27.8192
0177 1399183349 28.7082
0178 1399185791 28.1249
0179 1399188232 28.4317
0180 1399190673 29.8498
0181 1399193115 29.2534
0182 1399195556 28.4657
0183 1399197998 29.8492
0184 1399200439 30.6623
0185 1399202880 28.8756
0186 1399205322 29.2043
0187 1399207763 30.1402
0188 1399210205 29.5933
0189 1399212646 29.3457
0190 1399215087 29.0354
0191 1399217529 29.1796
0192 1399219970 29.5146
0193 1399222412 30.0791
0194 1399224853 29.5692
0195 1399227294 29.3776
0196 1399229736 29.4038
0197 1399232177 29.2446
0198 1399234619 29.2235
0199 1399237060 29.7932
0200 1399239501 29.4548
0201 1399241943 29.8762
0202 1399244384 30.6790
0203 1399246826 30.2839
0204 1399249267 29.9513
0205 1399251708 30.2594
0206 1399254150 30.0326
0207 1399256591 30.0007
0208 1399259033 30.6650
0209 1399261474 30.7236
0210 1399263916 29.7093
0211 1399266357 30.0719
0212 1399268798 30.3205
0213 1399271240 30.1429
0214 1399273681 30.7356
0215 1399276123 30.9040
0216 1399278564 30.3534
0217 1399281005 30.2736
0218 1399283447 30.1722
0219 1399285888 30.8096
0220 1399288330 30.8815
0221 1399290771 30.8330
0222 1399293212 30.2747
0223 1399295654 30.4317
0224 1399298095 30.3060
0225 1399300537 30.2949
0226 1399302978 30.1659
0227 1399305419 31.1924
0228 1399307861 31.1710
0229 1399310302 30.7906
0230 1399312744 32.3323
0231 1399315185 31.2669
0232 1399317626 30.4518
0233 1399320068 31.0248
0234 1399322509 30.9634
0235 1399324951 30.4938
0236 1399327392 31.0946
0237 1399329833 36.2619
0238 1399332275 32.3222
0239 1399334716 30.3419
0240 1399337158 30.8124
0241 1399339599 30.6073
0242 1399342041 30.8083
0243 1399344482 30.9551
0244 1399346923 30.4089
0245 1399349365 30.6352
0246 1399351806 30.9269
0247 1399354248 30.2440
0248 1399356689 30.3411
0249 1399359130 30.3569
0250 1399361572 30.4516
0251 1399364013 30.6856
0252 1399366455 31.2690
0253 1399368896 31.5890
0254 1399371337 30.9727
0255 1399373779 31.6819
0256 1399376220 30.8037
0257 1399378662 30.6257
0258 1399381103 31.4079
0259 1399383544 30.6913
0260 1399385986 30.3245
0261 1399388427 30.7360
0262 1399390869 30.4736
0263 1399393310 30.2643
0264 1399395751 30.5640
0265 1399398193 30.3760
0266 1399400634 30.5581
0267 1399403076 30.4328
0268 1399405517 30.5028
0269 1399407958 30.3165
0270 1399410400 30.4901
0271 1399412841 30.5655
0272 1399415283 30.2031
0273 1399417724 30.1890
0274 1399420166 30.0230
0275 1399422607 30.1277
0276 1399425048 30.3191
0277 1399427490 30.6904
0278 1399429931 30.3095
0279 1399432373 30.4193
0280 1399434814 31.3200
0281 1399437255 30.2604
0282 1399439697 30.3106
0283 1399442138 31.9459
0284 1399444580 30.8209
0285 1399447021 30.0490
0286 1399449462 30.3667
0287 1399451904 30.7409
0288 1399454345 30.3582
0289 1399456787 30.4224
0290 1399459228 30.5593
0291 1399461669 29.9303
0292 1399464111 30.0771
0293 1399466552 29.9124
0294 1399468994 29.9141
0295 1399471435 30.0481
0296 1399473876 30.4390
0297 1399476318 29.9322
0298 1399478759 29.8957
0299 1399481201 30.0537
0300 1399483642 29.9454
0301 1399486083 30.5226
0302 1399488525 30.6016
0303 1399490966 29.9336
0304 1399493408 30.5841
0305 1399495849 31.1158
0306 1399498291 30.3804
0307 1399500732 31.3130
0308 1399503173 31.0839
0309 1399505615 29.9842
0310 1399508056 29.7601
0311 1399510498 30.0721
0312 1399512939 29.9525
0313 1399515380 29.9868
0314 1399517822 30.0737
0315 1399520263 30.0596
0316 1399522705 29.8201
0317 1399525146 30.7360
0318 1399527587 30.3812
0319 1399530029 30.0937
0320 1399532470 30.6769
0321 1399534912 30.1057
0322 1399537353 30.1664
0323 1399539794 30.8415
0324 1399542236 30.1623
0325 1399544677 30.0138
0326 1399547119 30.4577
0327 1399549560 30.9838
0328 1399552001 30.2443
0329 1399554443 31.1999
0330 1399556884 31.6007
0331 1399559326 30.3534
0332 1399561767 31.2729
0333 1399564208 32.8360
0334 1399566650 30.4115
0335 1399569091 30.3878
0336 1399571533 31.0848
0337 1399573974 30.6223
0338 1399576416 30.5847
0339 1399578857 30.5235
0340 1399581298 30.3704
0341 1399583740 30.5709
0342 1399586181 31.1834
0343 1399588623 31.3324
0344 1399591064 30.8808
0345 1399593505 31.5835
0346 1399595947 30.7405
0347 1399598388 30.2085
0348 1399600830 30.5260
0349 1399603271 31.1080
0350 1399605712 31.3487
0351 1399608154 30.7942
0352 1399610595 30.9629
0353 1399613037 30.7724
0354 1399615478 31.4360
0355 1399617919 31.1179
0356 1399620361 31.1034
0357 1399622802 32.1712
0358 1399625244 33.0799
0359 1399627685 30.8732
0360 1399630126 31.0415
0361 1399632568 31.5775
0362 1399635009 31.1744
0363 1399637451 31.2425
0364 1399639892 31.7238
0365 1399642333 31.3369
0366 1399644775 31.3880
0367 1399647216 31.8453
0368 1399649658 31.4677
0369 1399652099 31.8338
0370 1399654541 31.7484
0371 1399656982 31.1709
0372 1399659423 31.5490
0373 1399661865 31.9474
0374 1399664306 31.6923
0375 1399666748 31.7525
0376 1399669189 32.2018
0377 1399671630 32.2055
0378 1399674072 32.0389
0379 1399676513 36.5340
0380 1399678955 35.2150
0381 1399681396 32.5702
0382 1399683837 34.1136
0383 1399686279 34.4479
0384 1399688720 31.9836
0385 1399691162 32.4920
0386 1399693603 32.6214
0387 1399696044 31.7838
0388 1399698486 32.5804
0389 1399700927 32.7872
0390 1399703369 32.9132
0391 1399705810 32.8248
0392 1399708251 32.8908
0393 1399710693 32.2512
0394 1399713134 32.8154
0395 1399715576 33.2469
0396 1399718017 33.2132
0397 1399720458 33.8887
0398 1399722900 33.5449
0399 1399725341 32.8103
0400 1399727783 33.5795
0401 1399730224 33.5555
0402 1399732666 32.8361
0403 1399735107 33.2814
0404 1399737548 33.8497
0405 1399739990 33.5039
0406 1399742431 33.5961
0407 1399744873 35.1894
0408 1399747314 35.7902
0409 1399749755 39.3853
0410 1399752197 36.6682
0411 1399754638 33.7646
0412 1399757080 34.0096
0413 1399759521 34.3049
0414 1399761962 33.6241
0415 1399764404 33.6984
0416 1399766845 34.2426
0417 1399769287 34.2622
0418 1399771728 33.9121
0419 1399774169 34.6447
0420 1399776611 35.2685
0421 1399779052 34.4573
0422 1399781494 34.0617
0423 1399783935 34.3344
0424 1399786376 34.5531
0425 1399788818 34.8202
0426 1399791259 36.8419
0427 1399793701 40.2278
0428 1399796142 35.3474
0429 1399798583 35.9313
0430 1399801025 35.1153
0431 1399803466 34.9786
0432 1399805908 36.2446
0433 1399808349 36.2494
0434 1399810791 35.2123
0435 1399813232 35.7065
0436 1399815673 35.4377
0437 1399818115 35.3422
0438 1399820556 35.6132
0439 1399822998 36.1504
0440 1399825439 35.7940
0441 1399827880 35.6979
0442 1399830322 36.1254
0443 1399832763 35.5911
0444 1399835205 35.3528
0445 1399837646 35.9344
0446 1399840087 36.1171
0447 1399842529 36.2787
0448 1399844970 37.4450
0449 1399847412 36.7572
0450 1399849853 35.6310
0451 1399852294 35.8822
0452 1399854736 35.7140
0453 1399857177 36.5662
0454 1399859619 37.4576
0455 1399862060 36.5162
0456 1399864501 36.4242
0457 1399866943 39.3844
0458 1399869384 37.7692
0459 1399871826 37.2845
0460 1399874267 37.0895
0461 1399876708 36.6230
0462 1399879150 36.7561
0463 1399881591 36.9574
0464 1399884033 37.3173
0465 1399886474 37.1487
0466 1399888916 37.5625
0467 1399891357 36.8104
0468 1399893798 37.4632
0469 1399896240 70.1380
0470 1399898681 78.4470
0471 1399901123 38.3205
0472 1399903564 37.7433
0473 1399906005 37.4397
0474 1399908447 37.5987
0475 1399910888 37.3728
0476 1399913330 39.3880
0477 1399915771 38.6462
0478 1399918212 37.9081
0479 1399920654 38.1112
0480 1399923095 37.6914
0481 1399925537 37.6034
0482 1399927978 38.9581
0483 1399930419 38.2834
0484 1399932861 38.5608
0485 1399935302 38.8813
0486 1399937744 38.6047
0487 1399940185 38.3254
0488 1399942626 38.8008
0489 1399945068 38.5686
0490 1399947509 39.0203
0491 1399949951 39.1803
0492 1399952392 38.8199
0493 1399954833 38.5576
0494 1399957275 39.7091
0495 1399959716 39.5778
0496 1399962158 39.2719
0497 1399964599 39.4932
0498 1399967041 39.5474
0499 1399969482 39.9988
0500 1399971923 40.5708
0501 1399974365 44.1014
0502 1399976806 49.3454
0503 1399979248 63.5004
0504 1399981689 45.3593
0505 1399984130 41.8823
0506 1399986572 64.5703
0507 1399989013 87.6090
0508 1399991455 64.0707
0509 1399993896 58.0950
0510 1399996337 424.3393
0511 1399998779 649.7894
0512 1400001220 70.8304
0513 1400003662 47.4197
0514 1400006103 44.7477
0515 1400008544 42.8045
0516 1400010986 43.6454
0517 1400013427 48.3075
0518 1400015869 49.3390
0519 1400018310 40.5892
0520 1400020751 43.8857
0521 1400023193 46.2926
0522 1400025634 40.8648
0523 1400028076 40.3221
0524 1400030517 40.1429
0525 1400032958 39.9058
0526 1400035400 39.8168
0527 1400037841 39.4963
0528 1400040283 40.5794
0529 1400042724 39.7412
0530 1400045166 39.1374
0531 1400047607 41.4527
0532 1400050048 40.3026
0533 1400052490 38.5065
0534 1400054931 39.0762
0535 1400057373 38.6891
0536 1400059814 38.4072
0537 1400062255 38.2270
0538 1400064697 38.3538
0539 1400067138 38.1718
0540 1400069580 38.0572
0541 1400072021 38.5039
0542 1400074462 37.9232
0543 1400076904 37.8643
0544 1400079345 38.0256
0545 1400081787 37.7421
0546 1400084228 39.2184
0547 1400086669 41.3459
0548 1400089111 38.1291
0549 1400091552 37.4884
0550 1400093994 37.8478
0551 1400096435 37.7981
0552 1400098876 37.5593
0553 1400101318 37.2748
0554 1400103759 37.2870
0555 1400106201 38.2166
0556 1400108642 43.5769
0557 1400111083 40.9254
0558 1400113525 37.3424
0559 1400115966 37.2814
0560 1400118408 37.4621
0561 1400120849 37.2683
0562 1400123291 37.3640
0563 1400125732 37.5346
0564 1400128173 37.0730
0565 1400130615 36.7289
0566 1400133056 36.9067
0567 1400135498 36.2258
0568 1400137939 36.3673
0569 1400140380 36.4722
0570 1400142822 36.7724
0571 1400145263 36.6810
0572 1400147705 36.9518
0573 1400150146 36.4284
0574 1400152587 36.1911
0575 1400155029 37.8546
0576 1400157470 37.0875
0577 1400159912 36.7174
0578 1400162353 38.1713
0579 1400164794 37.5299
0580 1400167236 36.4464
0581 1400169677 36.8947
0582 1400172119 36.7671
0583 1400174560 35.9551
0584 1400177001 36.0135
0585 1400179443 36.0051
0586 1400181884 35.7761
0587 1400184326 35.9919
0588 1400186767 37.9008
0589 1400189208 36.1776
0590 1400191650 35.8557
0591 1400194091 35.9758
0592 1400196533 35.2457
0593 1400198974 35.6967
0594 1400201416 36.1482
0595 1400203857 35.4561
0596 1400206298 35.5651
0597 1400208740 36.0089
0598 1400211181 35.5837
0599 1400213623 35.3534
0600 1400216064 35.6674
0601 1400218505 35.3106
0602 1400220947 35.0882
0603 1400223388 35.4138
0604 1400225830 35.0293
0605 1400228271 34.5327
0606 1400230712 34.9965
0607 1400233154 34.8068
0608 1400235595 34.7967
0609 1400238037 34.3052
0610 1400240478 34.5757
0611 1400242919 33.9956
0612 1400245361 34.2412
0613 1400247802 34.2009
0614 1400250244 33.9319
0615 1400252685 34.5979
0616 1400255126 34.6745
0617 1400257568 36.0964
0618 1400260009 40.4624
0619 1400262451 34.5215
0620 1400264892 34.0635
0621 1400267333 33.5516
0622 1400269775 33.8098
0623 1400272216 33.7756
0624 1400274658 33.7014
0625 1400277099 34.9552
0626 1400279541 33.8797
0627 1400281982 34.0968
0628 1400284423 35.7323
0629 1400286865 34.0890
0630 1400289306 33.7769
0631 1400291748 35.7734
0632 1400294189 33.9956
0633 1400296630 32.9269
0634 1400299072 33.4828
0635 1400301513 33.8902
0636 1400303955 36.3785
0637 1400306396 33.8948
0638 1400308837 33.5699
0639 1400311279 32.9799
0640 1400313720 33.0088
0641 1400316162 33.0481
0642 1400318603 32.5957
0643 1400321044 32.8426
0644 1400323486 33.4366
0645 1400325927 32.5300
0646 1400328369 32.8611
0647 1400330810 32.9928
0648 1400333251 32.7197
0649 1400335693 32.5890
0650 1400338134 32.7180
0651 1400340576 32.9236
0652 1400343017 33.8640
0653 1400345458 33.9936
0654 1400347900 32.3868
0655 1400350341 32.0470
0656 1400352783 33.2419
0657 1400355224 32.2924
0658 1400357666 32.0805
0659 1400360107 32.0588
0660 1400362548 32.1834
0661 1400364990 32.0140
0662 1400367431 32.2132
0663 1400369873 31.8661
0664 1400372314 31.8513
0665 1400374755 32.1992
0666 1400377197 32.9357
0667 1400379638 33.6436
0668 1400382080 32.0605
0669 1400384521 31.7116
0670 1400386962 32.3081
0671 1400389404 32.6548
0672 1400391845 32.1486
0673 1400394287 31.7593
0674 1400396728 31.7211
0675 1400399169 32.3410
0676 1400401611 31.6246
0677 1400404052 31.3947
0678 1400406494 32.2625
0679 1400408935 31.2409
0680 1400411376 31.7014
0681 1400413818 34.1407
0682 1400416259 32.2102
0683 1400418701 31.5657
0684 1400421142 31.4417
0685 1400423583 31.2108
0686 1400426025 31.4434
0687 1400428466 31.6453
0688 1400430908 31.5529
0689 1400433349 31.3031
0690 1400435791 31.5583
0691 1400438232 31.4502
0692 1400440673 31.1688
0693 1400443115 31.7490
0694 1400445556 31.6322
0695 1400447998 31.1419
0696 1400450439 31.3657
0697 1400452880 31.5538
0698 1400455322 31.1264
0699 1400457763 31.7871
0700 1400460205 31.5296
0701 1400462646 31.5701
0702 1400465087 32.3208
0703 1400467529 32.5899
0704 1400469970 31.4075
0705 1400472412 31.9170
0706 1400474853 33.3405
0707 1400477294 31.4306
0708 1400479736 31.1556
0709 1400482177 31.4187
0710 1400484619 31.0967
0711 1400487060 31.7920
0712 1400489501 31.5548
0713 1400491943 31.2702
0714 1400494384 31.2701
0715 1400496826 32.4257
0716 1400499267 32.3497
0717 1400501708 31.4464
0718 1400504150 32.2302
0719 1400506591 31.6069
0720 1400509033 31.3817
0721 1400511474 31.7011
0722 1400513916 31.1256
0723 1400516357 31.3978
0724 1400518798 31.4731
0725 1400521240 31.7457
0726 1400523681 31.6816
0727 1400526123 32.7406
0728 1400528564 31.9466
0729 1400531005 31.4134
0730 1400533447 32.5840
0731 1400535888 33.0328
0732 1400538330 31.8837
0733 1400540771 32.0809
0734 1400543212 32.4892
0735 1400545654 31.4893
0736 1400548095 31.6491
0737 1400550537 32.1448
0738 1400552978 31.3857
0739 1400555419 31.6718
0740 1400557861 32.3634
0741 1400560302 32.0089
0742 1400562744 31.6407
0743 1400565185 31.6372
0744 1400567626 31.4811
0745 1400570068 31.7531
0746 1400572509 32.0697
0747 1400574951 31.7472
0748 1400577392 31.9117
0749 1400579833 31.9921
0750 1400582275 31.9363
0751 1400584716 31.8621
0752 1400587158 33.6055
0753 1400589599 32.5702
0754 1400592041 32.0104
0755 1400594482 34.7723
0756 1400596923 35.4414
0757 1400599365 32.2926
0758 1400601806 32.1586
0759 1400604248 32.2310
0760 1400606689 32.0440
0761 1400609130 32.0792
0762 1400611572 32.1207
0763 1400614013 32.2588
0764 1400616455 32.1706
0765 1400618896 32.3053
0766 1400621337 32.3744
0767 1400623779 32.7432
0768 1400626220 33.0796
0769 1400628662 32.5408
0770 1400631103 32.4776
0771 1400633544 32.4046
0772 1400635986 32.0240
0773 1400638427 32.4111
0774 1400640869 33.6710
0775 1400643310 32.4874
0776 1400645751 32.8467
0777 1400648193 33.5406
0778 1400650634 32.4614
0779 1400653076 32.2742
0780 1400655517 33.2044
0781 1400657958 32.8419
0782 1400660400 32.4430
0783 1400662841 32.5318
0784 1400665283 32.7733
0785 1400667724 32.1825
0786 1400670166 33.5306
0787 1400672607 40.6242
0788 1400675048 52.0960
0789 1400677490 34.6244
0790 1400679931 32.7414
0791 1400682373 32.3335
0792 1400684814 32.8075
0793 1400687255 32.7918
0794 1400689697 32.5568
0795 1400692138 38.5486
0796 1400694580 42.5244
0797 1400697021 36.0274
0798 1400699462 32.6447
0799 1400701904 32.9624
0800 1400704345 32.6518
0801 1400706787 32.7919
0802 1400709228 33.3870
0803 1400711669 32.5644
0804 1400714111 32.8024
0805 1400716552 35.3136
0806 1400718994 33.7298
0807 1400721435 32.5490
0808 1400723876 32.8100
0809 1400726318 32.3262
0810 1400728759 32.7890
0811 1400731201 32.4164
0812 1400733642 32.3379
0813 1400736083 32.1983
0814 1400738525 32.7299
0815 1400740966 32.5125
0816 1400743408 31.9569
0817 1400745849 32.5076
0818 1400748291 33.1725
0819 1400750732 32.0819
0820 1400753173 32.3481
0821 1400755615 32.5512
0822 1400758056 32.1757
0823 1400760498 32.2377
0824 1400762939 32.2292
0825 1400765380 32.1612
0826 1400767822 33.9626
0827 1400770263 34.2033
0828 1400772705 31.9256
0829 1400775146 31.7530
0830 1400777587 33.7096
0831 1400780029 32.5447
0832 1400782470 31.8193
0833 1400784912 32.0383
0834 1400787353 31.8116
0835 1400789794 31.7406
0836 1400792236 31.9594
0837 1400794677 31.6699
0838 1400797119 32.7185
0839 1400799560 32.7181
0840 1400802001 31.5551
0841 1400804443 31.3915
0842 1400806884 31.5008
0843 1400809326 31.3254
0844 1400811767 30.7879
0845 1400814208 31.2029
0846 1400816650 31.0081
0847 1400819091 30.7697
0848 1400821533 31.6955
0849 1400823974 32.2974
0850 1400826416 30.4939
0851 1400828857 31.1664
0852 1400831298 30.9259
0853 1400833740 29.9299
0854 1400836181 30.1621
0855 1400838623 30.9077
0856 1400841064 30.0349
0857 1400843505 30.1287
0858 1400845947 29.9695
0859 1400848388 29.2489
0860 1400850830 29.3399
0861 1400853271 30.2936
0862 1400855712 29.4595
0863 1400858154 29.3251
0864 1400860595 29.3018
0865 1400863037 28.7509
0866 1400865478 28.6048
0867 1400867919 28.6737
0868 1400870361 28.5738
0869 1400872802 28.4620
0870 1400875244 28.3842
0871 1400877685 28.7148
0872 1400880126 28.1999
0873 1400882568 28.3729
0874 1400885009 28.3334
0875 1400887451 32.1742
0876 1400889892 29.8650
0877 1400892333 28.1063
0878 1400894775 27.4142
0879 1400897216 27.5225
0880 1400899658 28.1750
0881 1400902099 26.8377
0882 1400904541 26.7001
0883 1400906982 26.7878
0884 1400909423 26.1371
0885 1400911865 26.2426
0886 1400914306 26.3914
0887 1400916748 25.8612
0888 1400919189 25.6183
0889 1400921630 25.6782
0890 1400924072 25.6382
0891 1400926513 25.6816
0892 1400928955 25.9421
0893 1400931396 25.1203
0894 1400933837 24.6594
0895 1400936279 24.5399
0896 1400938720 24.4280
0897 1400941162 24.3784
0898 1400943603 24.7409
0899 1400946044 24.2781
0900 1400948486 23.8675
0901 1400950927 24.1460
0902 1400953369 23.5259
0903 1400955810 23.0213
0904 1400958251 23.6629
0905 1400960693 24.0216
0906 1400963134 22.7793
0907 1400965576 23.6160
0908 1400968017 22.5683
0909 1400970458 22.2432
0910 1400972900 22.2474
0911 1400975341 22.2451
0912 1400977783 21.6560
0913 1400980224 21.3596
0914 1400982666 21.2362
0915 1400985107 20.9595
0916 1400987548 20.8904
0917 1400989990 20.7148
0918 1400992431 20.6403
0919 1400994873 20.3827
0920 1400997314 20.2874
0921 1400999755 19.9738
0922 1401002197 19.8106
0923 1401004638 19.7827
0924 1401007080 19.3976
0925 1401009521 19.1184
0926 1401011962 19.4306
0927 1401014404 18.6370
0928 1401016845 18.4536
0929 1401019287 18.7753
0930 1401021728 18.5691
0931 1401024169 18.1246
0932 1401026611 17.9069
0933 1401029052 17.7229
0934 1401031494 17.4215
0935 1401033935 17.2256
0936 1401036376 17.0184
0937 1401038818 16.6403
0938 1401041259 16.7420
0939 1401043701 16.9624
0940 1401046142 16.2619
0941 1401048583 16.0147
0942 1401051025 15.7685
0943 1401053466 15.7118
0944 1401055908 15.5443
0945 1401058349 15.4020
0946 1401060791 15.3041
0947 1401063232 15.1242
0948 1401065673 15.1345
0949 1401068115 14.8417
0950 1401070556 14.5684
0951 1401072998 14.5521
0952 1401075439 14.2528
0953 1401077880 13.8754
0954 1401080322 14.2498
0955 1401082763 14.3514
0956 1401085205 13.6214
0957 1401087646 13.7655
0958 1401090087 13.2533
0959 1401092529 12.9515
0960 1401094970 12.8352
0961 1401097412 13.2557
0962 1401099853 12.5886
0963 1401102294 12.3905
0964 1401104736 12.1025
0965 1401107177 11.9406
0966 1401109619 11.8514
0967 1401112060 11.7439
0968 1401114501 11.4762
0969 1401116943 11.4320
0970 1401119384 11.3718
0971 1401121826 11.0167
0972 1401124267 11.0688
0973 1401126708 11.1221
0974 1401129150 10.7675
0975 1401131591 10.7006
0976 1401134033 10.7425
0977 1401136474 10.2070
0978 1401138916 10.1280
0979 1401141357 10.3120
0980 1401143798 9.9385
0981 1401146240 9.8609
0982 1401148681 9.6920
0983 1401151123 9.5188
0984 1401153564 9.3579
0985 1401156005 9.2475
0986 1401158447 9.1277
0987 1401160888 9.0298
0988 1401163330 8.9756
0989 1401165771 8.8769
0990 1401168212 8.6354
0991 1401170654 8.6296
0992 1401173095 8.6879
0993 1401175537 8.5781
0994 1401177978 8.5236
0995 1401180419 8.3488
0996 1401182861 8.1734
0997 1401185302 8.1034
0998 1401187744 8.3368
0999 1401190185 8.0804
1000 1401192626 7.9452
1001 1401195068 8.1568
1002 1401197509 11.4683
1003 1401199951 8.9823
1004 1401202392 7.8866
1005 1401204833 7.5287
1006 1401207275 7.3897
1007 1401209716 7.3067
1008 1401212158 7.2659
1009 1401214599 7.3865
1010 1401217041 7.1311
1011 1401219482 7.0191
1012 1401221923 7.0224
1013 1401224365 6.9585
1014 1401226806 6.9486
1015 1401229248 6.8419
1016 1401231689 6.8427
1017 1401234130 6.7895
1018 1401236572 6.7759
1019 1401239013 6.7781
1020 1401241455 6.6928
1021 1401243896 6.7582
1022 1401246337 6.8056
1023 1401248779 6.8087
