# File: 20-06-07T195056.ast
# NOTEA     = None Attached.  RTLSDR Dongle Test
# NOTEB     = Spectral Integration
# OBSERVER  = Science Aficionado
# DEVICE    = rtl=0,bias=1
# DATADIR   = ../data/
# SITE      = None Attached.  RTLSDR Dongle Test
# CITY      = Seattle
# REGION    = Washington
# COUNTRY   = US
# TELTYPE   = UW CSE 490W Dish
# FRAME     = TOPO
# GAIN1     = 49.0
# GAIN2     = 11.0
# GAIN3     = 11.0
# GAIN4     = 0.0
# Count     = 2500
# CenterFreq= 1421500000.0
# Bandwidth = 2500000.0
# Duration  = 41.946804
# DeltaX    = 5859.375
# TSYS      = 200.0
# TRX       = 100.0
# TRMS      = 2.0
# TINT      = 1.0
# KPERC     = 100.0
# GAINFACT  = 1.0
# BUNIT     = Counts
# NCHAN     = 2048
# NSPEC     = 1
# NTIME     = 0
# NSAMPLES  = 0
# EPEAK     = 4.10875183718
# ERMS      = 0.995973393526
# EMJD      = 58568.808999981004 
# REFCHAN   = 1024.0
# REFSAMPL  = 256.0
# NAVE      = 50
# NMEDIAN   = 1024
# Fft_rate  = 5000
# UTC       = 2020-06-07 19:50:56.940997
# SECONDS   =       0.0000000000 
# LST       = 09:06:51.840
# AZ        = 180.0
# EL        = 90.0
# TELLON    = -57:41:09.900
# TELLAT    = +47:39:13.800
# RA        = 09:04:07.200
# DEC       = +47:48:50.300
# GALLON    = 171:44:31.30
# GALLAT    = +41:40:20.50
# ALT_SUN   = +36:30:16.6
# AZ_SUN    = +264:34:46.9
# ETAA      = 0.8
# ETAB      = 0.99
# POLANGLE  = 0.0
# TELSIZEAM = 1.0
# TELSIZEBM = 1.0
# AST_VERS  = 05.01
0000 1420250610 8.1065
0001 1420251831 7.9396
0002 1420253051 7.9986
0003 1420254272 8.0855
0004 1420255493 8.0281
0005 1420256713 8.0830
0006 1420257934 8.0682
0007 1420259155 7.9570
0008 1420260375 7.9708
0009 1420261596 8.0421
0010 1420262817 8.0270
0011 1420264038 8.1372
0012 1420265258 8.0354
0013 1420266479 8.0488
0014 1420267700 8.1239
0015 1420268920 8.1272
0016 1420270141 8.0557
0017 1420271362 8.0757
0018 1420272583 8.0216
0019 1420273803 8.1012
0020 1420275024 8.2459
0021 1420276245 8.1799
0022 1420277465 8.1688
0023 1420278686 8.2209
0024 1420279907 8.2086
0025 1420281127 8.2512
0026 1420282348 8.3477
0027 1420283569 8.2861
0028 1420284790 8.3015
0029 1420286010 8.3113
0030 1420287231 8.4998
0031 1420288452 8.4420
0032 1420289672 8.3723
0033 1420290893 8.5550
0034 1420292114 8.6146
0035 1420293334 8.6534
0036 1420294555 8.7041
0037 1420295776 8.6765
0038 1420296997 8.8025
0039 1420298217 8.6864
0040 1420299438 8.9766
0041 1420300659 9.0852
0042 1420301879 8.9176
0043 1420303100 8.8382
0044 1420304321 8.9956
0045 1420305541 8.9772
0046 1420306762 9.1256
0047 1420307983 9.1290
0048 1420309204 9.1815
0049 1420310424 9.2490
0050 1420311645 9.2855
0051 1420312866 9.3268
0052 1420314086 9.4225
0053 1420315307 9.4619
0054 1420316528 9.4097
0055 1420317749 9.4140
0056 1420318969 9.5306
0057 1420320190 9.5741
0058 1420321411 9.6644
0059 1420322631 9.8042
0060 1420323852 9.6639
0061 1420325073 9.7490
0062 1420326293 9.9306
0063 1420327514 10.0146
0064 1420328735 9.9120
0065 1420329956 10.0378
0066 1420331176 10.0025
0067 1420332397 10.2416
0068 1420333618 10.1336
0069 1420334838 10.1756
0070 1420336059 10.2472
0071 1420337280 10.3334
0072 1420338500 10.3507
0073 1420339721 10.4730
0074 1420340942 10.4286
0075 1420342163 10.5607
0076 1420343383 10.6760
0077 1420344604 10.7913
0078 1420345825 10.8633
0079 1420347045 10.8057
0080 1420348266 10.7582
0081 1420349487 10.8613
0082 1420350708 10.9580
0083 1420351928 11.0104
0084 1420353149 11.1389
0085 1420354370 11.1424
0086 1420355590 11.2223
0087 1420356811 11.3333
0088 1420358032 11.3936
0089 1420359252 11.5080
0090 1420360473 11.6532
0091 1420361694 11.5720
0092 1420362915 11.6376
0093 1420364135 11.5799
0094 1420365356 11.8238
0095 1420366577 11.8237
0096 1420367797 12.0840
0097 1420369018 11.9925
0098 1420370239 11.9288
0099 1420371459 11.9533
0100 1420372680 12.2192
0101 1420373901 12.1748
0102 1420375122 12.3287
0103 1420376342 12.5031
0104 1420377563 12.6380
0105 1420378784 12.6094
0106 1420380004 12.6331
0107 1420381225 12.6996
0108 1420382446 12.8506
0109 1420383666 12.7413
0110 1420384887 12.6719
0111 1420386108 12.9087
0112 1420387329 13.0772
0113 1420388549 13.5027
0114 1420389770 13.4712
0115 1420390991 13.5561
0116 1420392211 13.5159
0117 1420393432 13.5474
0118 1420394653 13.9054
0119 1420395874 13.8051
0120 1420397094 13.7848
0121 1420398315 14.0767
0122 1420399536 14.1173
0123 1420400756 13.8974
0124 1420401977 14.1685
0125 1420403198 14.2729
0126 1420404418 14.2611
0127 1420405639 14.3343
0128 1420406860 14.4931
0129 1420408081 14.5776
0130 1420409301 14.6667
0131 1420410522 14.9482
0132 1420411743 14.8028
0133 1420412963 14.7919
0134 1420414184 14.9584
0135 1420415405 15.2488
0136 1420416625 15.3686
0137 1420417846 15.2123
0138 1420419067 15.2720
0139 1420420288 15.4111
0140 1420421508 15.6097
0141 1420422729 15.7830
0142 1420423950 15.9111
0143 1420425170 15.7259
0144 1420426391 16.1540
0145 1420427612 16.1821
0146 1420428833 16.1443
0147 1420430053 16.1856
0148 1420431274 16.2181
0149 1420432495 16.1565
0150 1420433715 16.5147
0151 1420434936 16.6596
0152 1420436157 16.7070
0153 1420437377 16.6479
0154 1420438598 16.9782
0155 1420439819 16.9543
0156 1420441040 17.3916
0157 1420442260 17.4268
0158 1420443481 17.4472
0159 1420444702 17.6718
0160 1420445922 17.4514
0161 1420447143 17.5410
0162 1420448364 17.6040
0163 1420449584 17.6236
0164 1420450805 17.9047
0165 1420452026 18.0551
0166 1420453247 18.1525
0167 1420454467 18.1750
0168 1420455688 18.6506
0169 1420456909 18.8141
0170 1420458129 18.5806
0171 1420459350 18.6408
0172 1420460571 18.7512
0173 1420461791 18.9665
0174 1420463012 18.6138
0175 1420464233 19.1834
0176 1420465454 19.1636
0177 1420466674 19.3276
0178 1420467895 19.3432
0179 1420469116 19.2495
0180 1420470336 19.4406
0181 1420471557 19.4234
0182 1420472778 19.3718
0183 1420473999 19.1794
0184 1420475219 19.7664
0185 1420476440 20.0886
0186 1420477661 20.0705
0187 1420478881 20.4337
0188 1420480102 20.3936
0189 1420481323 20.3250
0190 1420482543 20.4089
0191 1420483764 20.7650
0192 1420484985 20.6276
0193 1420486206 20.5947
0194 1420487426 20.8925
0195 1420488647 20.8216
0196 1420489868 21.1285
0197 1420491088 21.2024
0198 1420492309 21.2973
0199 1420493530 21.5464
0200 1420494750 21.5732
0201 1420495971 21.9379
0202 1420497192 21.6510
0203 1420498413 22.6108
0204 1420499633 22.9510
0205 1420500854 21.9030
0206 1420502075 22.2982
0207 1420503295 22.3739
0208 1420504516 22.4473
0209 1420505737 22.1290
0210 1420506958 22.3032
0211 1420508178 22.7294
0212 1420509399 22.5712
0213 1420510620 22.9436
0214 1420511840 22.8427
0215 1420513061 22.7646
0216 1420514282 23.1021
0217 1420515502 23.6008
0218 1420516723 23.1991
0219 1420517944 23.2347
0220 1420519165 23.6818
0221 1420520385 23.7048
0222 1420521606 23.7786
0223 1420522827 23.8358
0224 1420524047 24.8838
0225 1420525268 24.5139
0226 1420526489 24.0580
0227 1420527709 24.2747
0228 1420528930 24.4518
0229 1420530151 24.2477
0230 1420531372 24.6342
0231 1420532592 24.5190
0232 1420533813 24.6143
0233 1420535034 24.9092
0234 1420536254 25.0499
0235 1420537475 24.6050
0236 1420538696 24.8309
0237 1420539916 25.2900
0238 1420541137 24.9365
0239 1420542358 25.2019
0240 1420543579 25.4793
0241 1420544799 25.9411
0242 1420546020 26.1543
0243 1420547241 25.9166
0244 1420548461 25.6505
0245 1420549682 25.7008
0246 1420550903 26.1048
0247 1420552124 26.5546
0248 1420553344 26.1070
0249 1420554565 26.2660
0250 1420555786 26.7078
0251 1420557006 26.3702
0252 1420558227 26.5753
0253 1420559448 26.5340
0254 1420560668 26.8091
0255 1420561889 26.9280
0256 1420563110 26.7492
0257 1420564331 26.7467
0258 1420565551 27.0283
0259 1420566772 27.2503
0260 1420567993 27.4640
0261 1420569213 27.5940
0262 1420570434 27.3775
0263 1420571655 27.8037
0264 1420572875 27.7251
0265 1420574096 28.2557
0266 1420575317 28.5612
0267 1420576538 28.0121
0268 1420577758 28.1598
0269 1420578979 28.1564
0270 1420580200 28.3846
0271 1420581420 28.3955
0272 1420582641 28.2674
0273 1420583862 28.5814
0274 1420585083 28.9489
0275 1420586303 28.9653
0276 1420587524 28.9594
0277 1420588745 29.0636
0278 1420589965 29.3072
0279 1420591186 29.8307
0280 1420592407 30.6204
0281 1420593627 29.5879
0282 1420594848 29.4410
0283 1420596069 29.5245
0284 1420597290 29.2606
0285 1420598510 29.3192
0286 1420599731 29.5726
0287 1420600952 29.8256
0288 1420602172 29.9611
0289 1420603393 30.4212
0290 1420604614 30.3570
0291 1420605834 30.2300
0292 1420607055 30.5097
0293 1420608276 30.1673
0294 1420609497 30.3514
0295 1420610717 30.4687
0296 1420611938 30.8946
0297 1420613159 30.8463
0298 1420614379 30.5608
0299 1420615600 30.5429
0300 1420616821 31.1761
0301 1420618041 30.6026
0302 1420619262 31.2655
0303 1420620483 31.2338
0304 1420621704 30.9505
0305 1420622924 30.4730
0306 1420624145 31.1642
0307 1420625366 31.7789
0308 1420626586 30.5502
0309 1420627807 31.1505
0310 1420629028 30.9658
0311 1420630249 31.5734
0312 1420631469 31.3188
0313 1420632690 31.5050
0314 1420633911 32.7297
0315 1420635131 33.8324
0316 1420636352 32.2257
0317 1420637573 31.5002
0318 1420638793 31.8755
0319 1420640014 32.2730
0320 1420641235 32.1185
0321 1420642456 31.9524
0322 1420643676 31.6908
0323 1420644897 31.9929
0324 1420646118 32.4608
0325 1420647338 32.3587
0326 1420648559 32.1984
0327 1420649780 32.0674
0328 1420651000 32.5505
0329 1420652221 32.6782
0330 1420653442 33.1678
0331 1420654663 33.1900
0332 1420655883 33.2754
0333 1420657104 33.1517
0334 1420658325 32.6816
0335 1420659545 33.6328
0336 1420660766 33.2692
0337 1420661987 33.5358
0338 1420663208 33.4321
0339 1420664428 33.3510
0340 1420665649 32.8208
0341 1420666870 33.1726
0342 1420668090 33.2971
0343 1420669311 33.5833
0344 1420670532 33.2593
0345 1420671752 33.9647
0346 1420672973 33.5337
0347 1420674194 33.4161
0348 1420675415 33.8137
0349 1420676635 34.1167
0350 1420677856 34.0134
0351 1420679077 34.2143
0352 1420680297 33.9509
0353 1420681518 33.8628
0354 1420682739 34.0711
0355 1420683959 34.4596
0356 1420685180 34.7961
0357 1420686401 34.5648
0358 1420687622 34.5488
0359 1420688842 34.3675
0360 1420690063 33.9262
0361 1420691284 33.8992
0362 1420692504 34.2783
0363 1420693725 34.5474
0364 1420694946 34.3303
0365 1420696166 34.5331
0366 1420697387 34.8234
0367 1420698608 34.4540
0368 1420699829 34.8862
0369 1420701049 34.8971
0370 1420702270 34.7250
0371 1420703491 34.0926
0372 1420704711 34.6471
0373 1420705932 34.6564
0374 1420707153 34.7131
0375 1420708374 35.1249
0376 1420709594 34.7733
0377 1420710815 34.8893
0378 1420712036 35.5282
0379 1420713256 35.5125
0380 1420714477 34.7679
0381 1420715698 35.1554
0382 1420716918 34.9740
0383 1420718139 34.8892
0384 1420719360 34.8743
0385 1420720581 35.6295
0386 1420721801 35.3496
0387 1420723022 35.2176
0388 1420724243 35.2740
0389 1420725463 35.7859
0390 1420726684 35.9266
0391 1420727905 35.1412
0392 1420729125 35.3531
0393 1420730346 35.7035
0394 1420731567 35.3290
0395 1420732788 35.4762
0396 1420734008 36.2228
0397 1420735229 35.8627
0398 1420736450 35.4107
0399 1420737670 35.3767
0400 1420738891 35.8036
0401 1420740112 35.8431
0402 1420741333 35.8418
0403 1420742553 35.5234
0404 1420743774 35.9499
0405 1420744995 35.6342
0406 1420746215 35.9940
0407 1420747436 36.0802
0408 1420748657 36.0139
0409 1420749877 35.8873
0410 1420751098 36.0664
0411 1420752319 36.8521
0412 1420753540 36.3495
0413 1420754760 36.1633
0414 1420755981 35.5543
0415 1420757202 35.9700
0416 1420758422 36.6984
0417 1420759643 36.0705
0418 1420760864 36.4152
0419 1420762084 36.0699
0420 1420763305 36.0543
0421 1420764526 35.7418
0422 1420765747 35.9999
0423 1420766967 36.2136
0424 1420768188 36.0457
0425 1420769409 36.8182
0426 1420770629 36.9541
0427 1420771850 36.1682
0428 1420773071 36.1894
0429 1420774291 36.0414
0430 1420775512 36.0488
0431 1420776733 36.2824
0432 1420777954 36.3534
0433 1420779174 36.0524
0434 1420780395 36.2283
0435 1420781616 36.0502
0436 1420782836 36.0549
0437 1420784057 36.4753
0438 1420785278 36.5295
0439 1420786499 36.1712
0440 1420787719 36.2809
0441 1420788940 36.4160
0442 1420790161 36.3732
0443 1420791381 36.5221
0444 1420792602 35.8639
0445 1420793823 36.2206
0446 1420795043 36.7260
0447 1420796264 37.0654
0448 1420797485 36.7588
0449 1420798706 35.9465
0450 1420799926 37.8370
0451 1420801147 38.8676
0452 1420802368 40.4315
0453 1420803588 37.2338
0454 1420804809 36.1991
0455 1420806030 36.1758
0456 1420807250 36.8438
0457 1420808471 36.9095
0458 1420809692 36.8227
0459 1420810913 36.7031
0460 1420812133 36.2156
0461 1420813354 36.2751
0462 1420814575 36.6662
0463 1420815795 37.2326
0464 1420817016 36.6015
0465 1420818237 36.4228
0466 1420819458 36.6821
0467 1420820678 36.6387
0468 1420821899 36.8255
0469 1420823120 36.3666
0470 1420824340 36.6291
0471 1420825561 36.4530
0472 1420826782 36.0861
0473 1420828002 36.4420
0474 1420829223 36.0985
0475 1420830444 36.6226
0476 1420831665 36.5988
0477 1420832885 36.6366
0478 1420834106 36.0576
0479 1420835327 36.2681
0480 1420836547 36.4824
0481 1420837768 36.2859
0482 1420838989 36.4273
0483 1420840209 36.2648
0484 1420841430 36.6613
0485 1420842651 36.7588
0486 1420843872 36.2855
0487 1420845092 36.6295
0488 1420846313 36.8417
0489 1420847534 37.0716
0490 1420848754 36.7527
0491 1420849975 36.7988
0492 1420851196 36.7456
0493 1420852416 36.9728
0494 1420853637 36.3373
0495 1420854858 36.0584
0496 1420856079 36.6988
0497 1420857299 36.5077
0498 1420858520 36.3297
0499 1420859741 36.1958
0500 1420860961 36.5169
0501 1420862182 36.9061
0502 1420863403 37.2559
0503 1420864624 36.3251
0504 1420865844 36.6724
0505 1420867065 36.4925
0506 1420868286 36.5396
0507 1420869506 36.6808
0508 1420870727 36.6799
0509 1420871948 36.6325
0510 1420873168 36.3094
0511 1420874389 36.1832
0512 1420875610 36.5135
0513 1420876831 36.2376
0514 1420878051 36.5739
0515 1420879272 36.7217
0516 1420880493 36.8698
0517 1420881713 36.5761
0518 1420882934 35.8091
0519 1420884155 35.5690
0520 1420885375 35.9982
0521 1420886596 36.5003
0522 1420887817 36.0062
0523 1420889038 36.1893
0524 1420890258 36.5931
0525 1420891479 36.9532
0526 1420892700 36.2390
0527 1420893920 36.6732
0528 1420895141 36.3522
0529 1420896362 36.2749
0530 1420897583 36.5877
0531 1420898803 36.4150
0532 1420900024 35.8490
0533 1420901245 36.1079
0534 1420902465 36.0731
0535 1420903686 36.1692
0536 1420904907 36.5174
0537 1420906127 36.1252
0538 1420907348 36.5492
0539 1420908569 36.3081
0540 1420909790 36.4117
0541 1420911010 35.9310
0542 1420912231 36.3947
0543 1420913452 36.2193
0544 1420914672 36.4205
0545 1420915893 36.5754
0546 1420917114 36.2533
0547 1420918334 36.3530
0548 1420919555 36.5995
0549 1420920776 36.5764
0550 1420921997 35.6425
0551 1420923217 36.2107
0552 1420924438 36.1460
0553 1420925659 36.5240
0554 1420926879 35.9830
0555 1420928100 36.6130
0556 1420929321 35.6572
0557 1420930541 35.8134
0558 1420931762 36.2550
0559 1420932983 36.3174
0560 1420934204 35.9660
0561 1420935424 35.9843
0562 1420936645 35.9250
0563 1420937866 36.4066
0564 1420939086 36.4250
0565 1420940307 36.0352
0566 1420941528 35.9668
0567 1420942749 35.9262
0568 1420943969 35.9904
0569 1420945190 35.9995
0570 1420946411 35.7567
0571 1420947631 36.6294
0572 1420948852 35.9327
0573 1420950073 36.4749
0574 1420951293 36.5523
0575 1420952514 36.5199
0576 1420953735 35.8665
0577 1420954956 36.2199
0578 1420956176 36.1860
0579 1420957397 35.9919
0580 1420958618 35.6663
0581 1420959838 35.9203
0582 1420961059 36.0501
0583 1420962280 35.7117
0584 1420963500 35.7697
0585 1420964721 36.0402
0586 1420965942 35.9067
0587 1420967163 36.1218
0588 1420968383 35.7943
0589 1420969604 36.0107
0590 1420970825 35.7055
0591 1420972045 35.9652
0592 1420973266 35.4391
0593 1420974487 35.5076
0594 1420975708 36.1346
0595 1420976928 35.7087
0596 1420978149 35.8149
0597 1420979370 35.7308
0598 1420980590 35.9623
0599 1420981811 36.1136
0600 1420983032 36.2800
0601 1420984252 35.9777
0602 1420985473 36.0406
0603 1420986694 36.2392
0604 1420987915 35.8608
0605 1420989135 35.8843
0606 1420990356 35.8332
0607 1420991577 36.1229
0608 1420992797 36.0828
0609 1420994018 35.9598
0610 1420995239 36.0864
0611 1420996459 35.9087
0612 1420997680 35.9669
0613 1420998901 36.1286
0614 1421000122 36.3146
0615 1421001342 36.1725
0616 1421002563 36.0338
0617 1421003784 35.8951
0618 1421005004 35.9402
0619 1421006225 36.3232
0620 1421007446 36.2026
0621 1421008666 36.2527
0622 1421009887 35.8943
0623 1421011108 36.1976
0624 1421012329 35.5216
0625 1421013549 35.6157
0626 1421014770 36.2943
0627 1421015991 36.9493
0628 1421017211 37.3002
0629 1421018432 36.9432
0630 1421019653 36.7055
0631 1421020874 36.6501
0632 1421022094 36.2357
0633 1421023315 36.3149
0634 1421024536 36.4416
0635 1421025756 35.8414
0636 1421026977 36.4741
0637 1421028198 36.0188
0638 1421029418 36.1905
0639 1421030639 35.7768
0640 1421031860 36.1814
0641 1421033081 35.9947
0642 1421034301 35.8300
0643 1421035522 35.9232
0644 1421036743 36.1510
0645 1421037963 36.1360
0646 1421039184 35.8046
0647 1421040405 35.7442
0648 1421041625 35.8111
0649 1421042846 35.8299
0650 1421044067 36.0023
0651 1421045288 36.3136
0652 1421046508 36.5476
0653 1421047729 36.4259
0654 1421048950 35.9195
0655 1421050170 36.7201
0656 1421051391 36.4643
0657 1421052612 35.8787
0658 1421053833 36.5595
0659 1421055053 36.2373
0660 1421056274 36.2630
0661 1421057495 35.9819
0662 1421058715 36.2388
0663 1421059936 35.9672
0664 1421061157 36.2298
0665 1421062377 36.1025
0666 1421063598 36.3971
0667 1421064819 37.1479
0668 1421066040 36.4180
0669 1421067260 36.2419
0670 1421068481 35.8465
0671 1421069702 35.7505
0672 1421070922 36.4640
0673 1421072143 36.3003
0674 1421073364 35.8509
0675 1421074584 36.1625
0676 1421075805 35.9187
0677 1421077026 36.3810
0678 1421078247 36.0700
0679 1421079467 36.5197
0680 1421080688 36.1293
0681 1421081909 36.0685
0682 1421083129 36.3661
0683 1421084350 37.2171
0684 1421085571 38.6353
0685 1421086791 37.9585
0686 1421088012 36.7916
0687 1421089233 36.3945
0688 1421090454 36.8092
0689 1421091674 36.6564
0690 1421092895 36.5613
0691 1421094116 36.6470
0692 1421095336 36.7233
0693 1421096557 36.5366
0694 1421097778 36.7832
0695 1421098999 36.9466
0696 1421100219 36.5322
0697 1421101440 36.7417
0698 1421102661 36.8178
0699 1421103881 36.4322
0700 1421105102 36.4443
0701 1421106323 37.0120
0702 1421107543 36.5871
0703 1421108764 36.8693
0704 1421109985 36.3670
0705 1421111206 37.3419
0706 1421112426 37.0897
0707 1421113647 37.1757
0708 1421114868 36.4581
0709 1421116088 36.9898
0710 1421117309 37.1657
0711 1421118530 37.2421
0712 1421119750 36.8554
0713 1421120971 36.5200
0714 1421122192 36.5936
0715 1421123413 36.9332
0716 1421124633 36.9694
0717 1421125854 37.5479
0718 1421127075 37.3698
0719 1421128295 37.4395
0720 1421129516 36.6659
0721 1421130737 37.0900
0722 1421131958 36.7977
0723 1421133178 36.7968
0724 1421134399 37.0596
0725 1421135620 37.3634
0726 1421136840 37.4511
0727 1421138061 37.3729
0728 1421139282 37.7093
0729 1421140502 37.0890
0730 1421141723 36.9687
0731 1421142944 37.3878
0732 1421144165 37.5972
0733 1421145385 37.1952
0734 1421146606 37.1011
0735 1421147827 37.6376
0736 1421149047 37.2280
0737 1421150268 37.4895
0738 1421151489 37.5778
0739 1421152709 38.8181
0740 1421153930 37.9767
0741 1421155151 37.3151
0742 1421156372 38.0171
0743 1421157592 37.3347
0744 1421158813 37.8770
0745 1421160034 37.7290
0746 1421161254 38.1762
0747 1421162475 37.8549
0748 1421163696 37.5043
0749 1421164916 37.6449
0750 1421166137 37.7825
0751 1421167358 37.9380
0752 1421168579 37.4443
0753 1421169799 37.7674
0754 1421171020 38.2151
0755 1421172241 37.6204
0756 1421173461 38.1542
0757 1421174682 37.6498
0758 1421175903 37.2937
0759 1421177124 38.0956
0760 1421178344 37.9059
0761 1421179565 38.2696
0762 1421180786 38.1590
0763 1421182006 37.9930
0764 1421183227 37.9511
0765 1421184448 38.2019
0766 1421185668 38.1117
0767 1421186889 38.0451
0768 1421188110 38.0346
0769 1421189331 38.0732
0770 1421190551 38.3151
0771 1421191772 38.8739
0772 1421192993 38.2243
0773 1421194213 38.5675
0774 1421195434 38.7131
0775 1421196655 37.7723
0776 1421197875 38.3212
0777 1421199096 38.6011
0778 1421200317 38.9283
0779 1421201538 38.7371
0780 1421202758 38.7063
0781 1421203979 39.2084
0782 1421205200 38.6711
0783 1421206420 38.7294
0784 1421207641 38.9701
0785 1421208862 38.8097
0786 1421210083 38.6924
0787 1421211303 38.6744
0788 1421212524 39.3831
0789 1421213745 38.8073
0790 1421214965 38.9565
0791 1421216186 39.6074
0792 1421217407 39.4430
0793 1421218627 40.2016
0794 1421219848 40.7806
0795 1421221069 42.1057
0796 1421222290 40.1535
0797 1421223510 39.8160
0798 1421224731 39.2498
0799 1421225952 38.9785
0800 1421227172 39.6436
0801 1421228393 39.7213
0802 1421229614 39.3876
0803 1421230834 39.4837
0804 1421232055 39.1774
0805 1421233276 39.3420
0806 1421234497 39.7375
0807 1421235717 39.0317
0808 1421236938 39.6979
0809 1421238159 40.0591
0810 1421239379 39.3778
0811 1421240600 39.6600
0812 1421241821 39.8043
0813 1421243041 40.2682
0814 1421244262 40.1691
0815 1421245483 39.1356
0816 1421246704 39.8800
0817 1421247924 39.2805
0818 1421249145 40.1315
0819 1421250366 40.3260
0820 1421251586 39.7932
0821 1421252807 40.1044
0822 1421254028 40.3998
0823 1421255249 40.4186
0824 1421256469 40.1561
0825 1421257690 40.2291
0826 1421258911 39.9042
0827 1421260131 40.2627
0828 1421261352 40.9543
0829 1421262573 40.1298
0830 1421263793 40.1366
0831 1421265014 40.7357
0832 1421266235 40.7184
0833 1421267456 40.4245
0834 1421268676 40.4132
0835 1421269897 40.9374
0836 1421271118 40.0230
0837 1421272338 41.2815
0838 1421273559 40.9562
0839 1421274780 40.7103
0840 1421276000 41.3634
0841 1421277221 40.6819
0842 1421278442 40.5662
0843 1421279663 41.3440
0844 1421280883 40.8833
0845 1421282104 41.0796
0846 1421283325 41.5557
0847 1421284545 41.5567
0848 1421285766 42.0381
0849 1421286987 43.8372
0850 1421288208 45.0444
0851 1421289428 44.0497
0852 1421290649 42.3998
0853 1421291870 41.4885
0854 1421293090 41.8691
0855 1421294311 41.8980
0856 1421295532 41.8350
0857 1421296752 41.1691
0858 1421297973 41.9593
0859 1421299194 41.6956
0860 1421300415 40.7757
0861 1421301635 41.3374
0862 1421302856 41.4701
0863 1421304077 41.7124
0864 1421305297 41.9235
0865 1421306518 41.6338
0866 1421307739 41.3375
0867 1421308959 41.6843
0868 1421310180 41.4885
0869 1421311401 41.8114
0870 1421312622 42.0877
0871 1421313842 42.0985
0872 1421315063 42.0544
0873 1421316284 42.5151
0874 1421317504 41.7726
0875 1421318725 42.2846
0876 1421319946 42.0816
0877 1421321166 42.5672
0878 1421322387 42.4185
0879 1421323608 42.5745
0880 1421324829 42.4711
0881 1421326049 42.0056
0882 1421327270 42.0416
0883 1421328491 42.2254
0884 1421329711 41.9174
0885 1421330932 42.4243
0886 1421332153 42.5229
0887 1421333374 42.5810
0888 1421334594 42.3973
0889 1421335815 42.7444
0890 1421337036 42.3036
0891 1421338256 41.9250
0892 1421339477 42.3977
0893 1421340698 42.5004
0894 1421341918 42.7888
0895 1421343139 43.0185
0896 1421344360 44.0895
0897 1421345581 42.6453
0898 1421346801 43.4476
0899 1421348022 42.7282
0900 1421349243 42.9340
0901 1421350463 43.7818
0902 1421351684 43.4044
0903 1421352905 43.7379
0904 1421354125 45.1951
0905 1421355346 47.9170
0906 1421356567 47.2829
0907 1421357788 43.9507
0908 1421359008 43.6232
0909 1421360229 43.8540
0910 1421361450 43.6111
0911 1421362670 43.3884
0912 1421363891 43.5603
0913 1421365112 43.3596
0914 1421366333 42.6876
0915 1421367553 43.7519
0916 1421368774 43.7407
0917 1421369995 43.6113
0918 1421371215 43.3213
0919 1421372436 43.8042
0920 1421373657 44.0976
0921 1421374877 43.1259
0922 1421376098 43.4694
0923 1421377319 43.8658
0924 1421378540 44.1475
0925 1421379760 43.8864
0926 1421380981 43.3782
0927 1421382202 43.7193
0928 1421383422 43.5176
0929 1421384643 43.9853
0930 1421385864 44.1588
0931 1421387084 44.4326
0932 1421388305 43.7192
0933 1421389526 43.9646
0934 1421390747 43.9954
0935 1421391967 43.7806
0936 1421393188 43.9467
0937 1421394409 44.3966
0938 1421395629 44.2704
0939 1421396850 43.9996
0940 1421398071 44.2961
0941 1421399291 44.6846
0942 1421400512 44.3717
0943 1421401733 44.5814
0944 1421402954 43.7989
0945 1421404174 44.6209
0946 1421405395 44.7242
0947 1421406616 44.0217
0948 1421407836 43.6734
0949 1421409057 44.3102
0950 1421410278 45.2212
0951 1421411499 44.5469
0952 1421412719 44.1399
0953 1421413940 44.0986
0954 1421415161 44.6256
0955 1421416381 44.4779
0956 1421417602 45.5951
0957 1421418823 45.3234
0958 1421420043 44.9514
0959 1421421264 45.8654
0960 1421422485 45.5338
0961 1421423706 45.8875
0962 1421424926 44.9923
0963 1421426147 45.2546
0964 1421427368 44.3167
0965 1421428588 44.5606
0966 1421429809 44.8525
0967 1421431030 44.8345
0968 1421432250 44.6508
0969 1421433471 44.7643
0970 1421434692 44.8633
0971 1421435913 44.5917
0972 1421437133 44.9080
0973 1421438354 44.7285
0974 1421439575 45.4668
0975 1421440795 45.5259
0976 1421442016 45.5837
0977 1421443237 45.0156
0978 1421444458 45.1066
0979 1421445678 45.4835
0980 1421446899 45.0789
0981 1421448120 45.1188
0982 1421449340 45.2377
0983 1421450561 45.0955
0984 1421451782 45.4578
0985 1421453002 45.3579
0986 1421454223 45.7806
0987 1421455444 45.4640
0988 1421456665 44.7586
0989 1421457885 44.3846
0990 1421459106 44.7892
0991 1421460327 45.2168
0992 1421461547 44.8366
0993 1421462768 45.7011
0994 1421463989 45.0882
0995 1421465209 45.6950
0996 1421466430 45.8349
0997 1421467651 45.7393
0998 1421468872 45.6883
0999 1421470092 46.2905
1000 1421471313 44.7416
1001 1421472534 45.8633
1002 1421473754 45.8718
1003 1421474975 45.6376
1004 1421476196 45.3777
1005 1421477416 46.2189
1006 1421478637 45.9521
1007 1421479858 44.7685
1008 1421481079 45.7764
1009 1421482299 45.9931
1010 1421483520 46.2171
1011 1421484741 46.1386
1012 1421485961 46.5522
1013 1421487182 46.4574
1014 1421488403 46.7751
1015 1421489624 46.8770
1016 1421490844 47.8574
1017 1421492065 47.5873
1018 1421493286 47.8642
1019 1421494506 47.6915
1020 1421495727 49.2928
1021 1421496948 50.0133
1022 1421498168 51.2903
1023 1421499389 52.2974
1024 1421500610 48.1095
1025 1421501831 52.1865
1026 1421503051 51.3317
1027 1421504272 49.3459
1028 1421505493 49.5158
1029 1421506713 48.2940
1030 1421507934 47.6832
1031 1421509155 47.6365
1032 1421510375 46.8267
1033 1421511596 47.3823
1034 1421512817 47.0818
1035 1421514038 47.0328
1036 1421515258 47.1244
1037 1421516479 46.1015
1038 1421517700 46.1771
1039 1421518920 45.4892
1040 1421520141 45.5854
1041 1421521362 45.8870
1042 1421522583 45.4589
1043 1421523803 45.9353
1044 1421525024 45.5010
1045 1421526245 45.7797
1046 1421527465 46.0336
1047 1421528686 45.7635
1048 1421529907 45.3497
1049 1421531127 45.2094
1050 1421532348 45.8930
1051 1421533569 45.6475
1052 1421534790 46.2391
1053 1421536010 45.1425
1054 1421537231 45.7398
1055 1421538452 45.8048
1056 1421539672 45.6413
1057 1421540893 45.8348
1058 1421542114 45.1800
1059 1421543334 45.4575
1060 1421544555 45.4825
1061 1421545776 45.6298
1062 1421546997 46.0541
1063 1421548217 45.4875
1064 1421549438 45.7349
1065 1421550659 45.8619
1066 1421551879 45.5208
1067 1421553100 44.9326
1068 1421554321 45.2075
1069 1421555541 45.2155
1070 1421556762 44.6848
1071 1421557983 45.1173
1072 1421559204 45.2317
1073 1421560424 45.4088
1074 1421561645 45.0313
1075 1421562866 45.1907
1076 1421564086 44.7971
1077 1421565307 44.6931
1078 1421566528 45.2539
1079 1421567749 44.3011
1080 1421568969 44.8557
1081 1421570190 44.5145
1082 1421571411 44.6857
1083 1421572631 44.3475
1084 1421573852 44.7536
1085 1421575073 44.4514
1086 1421576293 44.5539
1087 1421577514 45.1743
1088 1421578735 44.9517
1089 1421579956 44.7285
1090 1421581176 44.6712
1091 1421582397 44.3388
1092 1421583618 44.6950
1093 1421584838 44.9235
1094 1421586059 45.1749
1095 1421587280 44.8647
1096 1421588500 44.4314
1097 1421589721 44.2596
1098 1421590942 44.7223
1099 1421592163 45.0102
1100 1421593383 44.7191
1101 1421594604 44.1048
1102 1421595825 44.4875
1103 1421597045 44.0802
1104 1421598266 44.1951
1105 1421599487 44.0813
1106 1421600708 44.4657
1107 1421601928 44.5057
1108 1421603149 44.0598
1109 1421604370 44.5808
1110 1421605590 44.1010
1111 1421606811 44.1326
1112 1421608032 45.0257
1113 1421609252 44.3604
1114 1421610473 44.3064
1115 1421611694 44.3300
1116 1421612915 43.9072
1117 1421614135 43.9307
1118 1421615356 43.9562
1119 1421616577 43.9593
1120 1421617797 43.8881
1121 1421619018 44.0492
1122 1421620239 43.8294
1123 1421621459 44.1791
1124 1421622680 43.5105
1125 1421623901 43.8607
1126 1421625122 43.8873
1127 1421626342 43.6543
1128 1421627563 44.3176
1129 1421628784 43.8654
1130 1421630004 43.5352
1131 1421631225 44.1869
1132 1421632446 44.2330
1133 1421633666 43.4990
1134 1421634887 43.0830
1135 1421636108 43.4469
1136 1421637329 43.5300
1137 1421638549 42.9916
1138 1421639770 43.2631
1139 1421640991 43.5325
1140 1421642211 43.8472
1141 1421643432 43.8794
1142 1421644653 43.7826
1143 1421645874 43.5462
1144 1421647094 43.6558
1145 1421648315 43.8513
1146 1421649536 42.7898
1147 1421650756 43.0224
1148 1421651977 42.9767
1149 1421653198 43.2281
1150 1421654418 42.9956
1151 1421655639 42.8302
1152 1421656860 42.9599
1153 1421658081 43.2860
1154 1421659301 43.0090
1155 1421660522 43.1981
1156 1421661743 42.9048
1157 1421662963 43.3146
1158 1421664184 42.6102
1159 1421665405 42.8299
1160 1421666625 42.5865
1161 1421667846 43.2183
1162 1421669067 42.7723
1163 1421670288 42.7565
1164 1421671508 42.4496
1165 1421672729 42.5478
1166 1421673950 42.6527
1167 1421675170 42.1751
1168 1421676391 42.3898
1169 1421677612 42.2260
1170 1421678833 42.4360
1171 1421680053 43.0572
1172 1421681274 42.2962
1173 1421682495 42.7212
1174 1421683715 42.2089
1175 1421684936 42.8369
1176 1421686157 42.7053
1177 1421687377 41.9814
1178 1421688598 41.9868
1179 1421689819 42.0262
1180 1421691040 42.0237
1181 1421692260 42.0088
1182 1421693481 42.4849
1183 1421694702 41.8294
1184 1421695922 42.0839
1185 1421697143 42.1295
1186 1421698364 42.1499
1187 1421699584 42.7960
1188 1421700805 42.0547
1189 1421702026 42.2703
1190 1421703247 42.4201
1191 1421704467 41.8629
1192 1421705688 42.1663
1193 1421706909 41.9175
1194 1421708129 41.9443
1195 1421709350 41.0973
1196 1421710571 41.4037
1197 1421711791 41.8708
1198 1421713012 41.5456
1199 1421714233 41.5768
1200 1421715454 41.7369
1201 1421716674 41.6060
1202 1421717895 41.9433
1203 1421719116 41.6133
1204 1421720336 41.7789
1205 1421721557 41.7801
1206 1421722778 41.3892
1207 1421723999 41.8929
1208 1421725219 41.3500
1209 1421726440 41.0360
1210 1421727661 41.0341
1211 1421728881 40.9784
1212 1421730102 40.9019
1213 1421731323 41.6296
1214 1421732543 40.9393
1215 1421733764 40.8824
1216 1421734985 41.4466
1217 1421736206 41.3378
1218 1421737426 41.4325
1219 1421738647 41.3466
1220 1421739868 40.6965
1221 1421741088 40.5720
1222 1421742309 41.0064
1223 1421743530 40.8760
1224 1421744750 40.7996
1225 1421745971 41.5759
1226 1421747192 40.3674
1227 1421748413 40.2352
1228 1421749633 40.4670
1229 1421750854 41.0066
1230 1421752075 40.8508
1231 1421753295 40.9150
1232 1421754516 40.5943
1233 1421755737 40.5451
1234 1421756958 41.3066
1235 1421758178 40.3950
1236 1421759399 40.2869
1237 1421760620 40.5876
1238 1421761840 40.7348
1239 1421763061 40.3852
1240 1421764282 40.1679
1241 1421765502 40.0582
1242 1421766723 40.2534
1243 1421767944 40.1769
1244 1421769165 40.0560
1245 1421770385 40.2458
1246 1421771606 40.1963
1247 1421772827 39.9921
1248 1421774047 40.3299
1249 1421775268 40.1665
1250 1421776489 40.1938
1251 1421777709 40.2918
1252 1421778930 40.1427
1253 1421780151 39.8473
1254 1421781372 39.0134
1255 1421782592 40.1966
1256 1421783813 40.0219
1257 1421785034 39.8111
1258 1421786254 39.6556
1259 1421787475 39.4133
1260 1421788696 39.1163
1261 1421789916 39.6999
1262 1421791137 39.9684
1263 1421792358 39.8014
1264 1421793579 39.9503
1265 1421794799 39.0518
1266 1421796020 39.1446
1267 1421797241 39.4771
1268 1421798461 39.9036
1269 1421799682 39.0098
1270 1421800903 39.6600
1271 1421802124 39.8304
1272 1421803344 40.2789
1273 1421804565 43.2166
1274 1421805786 41.7094
1275 1421807006 39.0754
1276 1421808227 39.1636
1277 1421809448 38.9964
1278 1421810668 39.1903
1279 1421811889 39.2374
1280 1421813110 39.6799
1281 1421814331 39.2958
1282 1421815551 39.3325
1283 1421816772 39.3533
1284 1421817993 39.0437
1285 1421819213 38.6916
1286 1421820434 39.1888
1287 1421821655 39.1834
1288 1421822875 39.4529
1289 1421824096 39.3177
1290 1421825317 38.9153
1291 1421826538 39.1066
1292 1421827758 38.9331
1293 1421828979 38.5996
1294 1421830200 39.0621
1295 1421831420 38.6134
1296 1421832641 38.8418
1297 1421833862 38.3689
1298 1421835083 38.7325
1299 1421836303 38.5349
1300 1421837524 38.4066
1301 1421838745 38.3577
1302 1421839965 38.4534
1303 1421841186 38.0807
1304 1421842407 38.5138
1305 1421843627 38.3598
1306 1421844848 38.6781
1307 1421846069 38.0218
1308 1421847290 38.2780
1309 1421848510 38.6675
1310 1421849731 38.5011
1311 1421850952 38.1211
1312 1421852172 39.1331
1313 1421853393 38.3202
1314 1421854614 38.9979
1315 1421855834 38.5293
1316 1421857055 37.9948
1317 1421858276 38.0620
1318 1421859497 37.8256
1319 1421860717 38.7543
1320 1421861938 39.4961
1321 1421863159 39.3525
1322 1421864379 39.8767
1323 1421865600 39.8362
1324 1421866821 38.8171
1325 1421868041 38.2469
1326 1421869262 38.0517
1327 1421870483 38.3139
1328 1421871704 38.2701
1329 1421872924 37.9891
1330 1421874145 38.0105
1331 1421875366 37.9983
1332 1421876586 37.7232
1333 1421877807 38.5353
1334 1421879028 38.2920
1335 1421880249 37.9326
1336 1421881469 37.6126
1337 1421882690 37.4959
1338 1421883911 37.6227
1339 1421885131 37.5247
1340 1421886352 37.3661
1341 1421887573 37.7839
1342 1421888793 37.9095
1343 1421890014 38.4370
1344 1421891235 38.0549
1345 1421892456 37.7438
1346 1421893676 37.7547
1347 1421894897 37.8348
1348 1421896118 37.5802
1349 1421897338 37.5535
1350 1421898559 37.7832
1351 1421899780 37.6057
1352 1421901000 37.2340
1353 1421902221 37.8711
1354 1421903442 37.8851
1355 1421904663 37.5383
1356 1421905883 37.7923
1357 1421907104 37.5908
1358 1421908325 37.8756
1359 1421909545 37.3490
1360 1421910766 37.9593
1361 1421911987 37.2584
1362 1421913208 37.8090
1363 1421914428 37.3193
1364 1421915649 37.5829
1365 1421916870 37.6812
1366 1421918090 38.1818
1367 1421919311 37.4749
1368 1421920532 37.4246
1369 1421921752 37.1202
1370 1421922973 37.9126
1371 1421924194 37.5741
1372 1421925415 37.2410
1373 1421926635 37.1320
1374 1421927856 37.7495
1375 1421929077 36.9066
1376 1421930297 37.0992
1377 1421931518 37.2909
1378 1421932739 36.9018
1379 1421933959 37.1670
1380 1421935180 37.5627
1381 1421936401 37.5000
1382 1421937622 37.6492
1383 1421938842 37.5488
1384 1421940063 37.2838
1385 1421941284 37.5308
1386 1421942504 37.4992
1387 1421943725 37.6797
1388 1421944946 37.4010
1389 1421946166 37.0079
1390 1421947387 37.4764
1391 1421948608 37.4105
1392 1421949829 38.2517
1393 1421951049 37.3094
1394 1421952270 37.4025
1395 1421953491 37.3334
1396 1421954711 37.1057
1397 1421955932 37.5937
1398 1421957153 37.5115
1399 1421958374 37.5779
1400 1421959594 37.4497
1401 1421960815 37.9891
1402 1421962036 37.5410
1403 1421963256 37.9075
1404 1421964477 37.7799
1405 1421965698 37.2691
1406 1421966918 37.6013
1407 1421968139 37.6597
1408 1421969360 37.7408
1409 1421970581 37.3238
1410 1421971801 37.8142
1411 1421973022 37.4553
1412 1421974243 36.9830
1413 1421975463 37.6153
1414 1421976684 37.6446
1415 1421977905 37.5756
1416 1421979125 37.6966
1417 1421980346 37.2281
1418 1421981567 37.3348
1419 1421982788 37.4355
1420 1421984008 37.4929
1421 1421985229 37.6557
1422 1421986450 37.5700
1423 1421987670 37.7086
1424 1421988891 37.4390
1425 1421990112 37.7825
1426 1421991333 37.3870
1427 1421992553 37.8774
1428 1421993774 37.3121
1429 1421994995 36.9936
1430 1421996215 37.7656
1431 1421997436 37.5165
1432 1421998657 37.3085
1433 1421999877 45.7237
1434 1422001098 127.8546
1435 1422002319 243.0299
1436 1422003540 79.1922
1437 1422004760 37.8769
1438 1422005981 38.0397
1439 1422007202 37.5514
1440 1422008422 37.8434
1441 1422009643 37.2634
1442 1422010864 37.4167
1443 1422012084 37.5821
1444 1422013305 37.4365
1445 1422014526 37.5382
1446 1422015747 38.5980
1447 1422016967 37.5406
1448 1422018188 37.7589
1449 1422019409 38.0586
1450 1422020629 37.6694
1451 1422021850 38.0088
1452 1422023071 37.3877
1453 1422024291 37.3988
1454 1422025512 37.3624
1455 1422026733 37.5166
1456 1422027954 37.9423
1457 1422029174 37.9629
1458 1422030395 38.1242
1459 1422031616 37.7591
1460 1422032836 37.6577
1461 1422034057 37.7970
1462 1422035278 37.3829
1463 1422036499 37.2897
1464 1422037719 37.7549
1465 1422038940 37.9704
1466 1422040161 38.0617
1467 1422041381 38.1838
1468 1422042602 38.0715
1469 1422043823 37.6488
1470 1422045043 37.5204
1471 1422046264 37.8192
1472 1422047485 37.6072
1473 1422048706 37.8872
1474 1422049926 38.1799
1475 1422051147 38.4191
1476 1422052368 38.5012
1477 1422053588 37.7411
1478 1422054809 37.4083
1479 1422056030 38.0764
1480 1422057250 37.9940
1481 1422058471 37.7133
1482 1422059692 37.6337
1483 1422060913 38.0094
1484 1422062133 37.3978
1485 1422063354 37.4244
1486 1422064575 37.8532
1487 1422065795 37.7161
1488 1422067016 37.6887
1489 1422068237 37.8894
1490 1422069458 38.5393
1491 1422070678 38.5031
1492 1422071899 38.4278
1493 1422073120 37.8766
1494 1422074340 37.4161
1495 1422075561 37.1556
1496 1422076782 38.0387
1497 1422078002 38.3177
1498 1422079223 37.9122
1499 1422080444 37.6995
1500 1422081665 38.0584
1501 1422082885 37.7091
1502 1422084106 37.9618
1503 1422085327 37.6047
1504 1422086547 37.9842
1505 1422087768 38.2280
1506 1422088989 38.2653
1507 1422090209 37.9876
1508 1422091430 37.6302
1509 1422092651 37.6231
1510 1422093872 37.8235
1511 1422095092 37.9906
1512 1422096313 37.6690
1513 1422097534 38.2432
1514 1422098754 38.5132
1515 1422099975 38.5061
1516 1422101196 38.2419
1517 1422102416 38.1471
1518 1422103637 38.3539
1519 1422104858 37.9462
1520 1422106079 38.1031
1521 1422107299 38.6724
1522 1422108520 38.2333
1523 1422109741 38.4736
1524 1422110961 38.6108
1525 1422112182 38.3758
1526 1422113403 38.6146
1527 1422114624 38.3194
1528 1422115844 37.9733
1529 1422117065 38.3199
1530 1422118286 38.5833
1531 1422119506 39.7557
1532 1422120727 39.1444
1533 1422121948 38.6612
1534 1422123168 38.1237
1535 1422124389 37.7528
1536 1422125610 38.1438
1537 1422126831 38.2550
1538 1422128051 38.2230
1539 1422129272 38.3509
1540 1422130493 38.2272
1541 1422131713 37.8178
1542 1422132934 38.1486
1543 1422134155 38.7556
1544 1422135375 38.0053
1545 1422136596 38.6108
1546 1422137817 38.1540
1547 1422139038 37.7006
1548 1422140258 38.1959
1549 1422141479 38.1342
1550 1422142700 38.4980
1551 1422143920 38.4385
1552 1422145141 37.9865
1553 1422146362 38.6442
1554 1422147583 38.3300
1555 1422148803 38.2749
1556 1422150024 38.0338
1557 1422151245 38.7165
1558 1422152465 38.9801
1559 1422153686 38.7313
1560 1422154907 38.1681
1561 1422156127 38.2651
1562 1422157348 38.5204
1563 1422158569 38.9073
1564 1422159790 38.4668
1565 1422161010 38.4998
1566 1422162231 38.4376
1567 1422163452 38.6405
1568 1422164672 38.0418
1569 1422165893 38.0574
1570 1422167114 38.3087
1571 1422168334 38.2613
1572 1422169555 38.3676
1573 1422170776 38.2754
1574 1422171997 38.4368
1575 1422173217 38.4325
1576 1422174438 38.7311
1577 1422175659 38.8737
1578 1422176879 38.4181
1579 1422178100 38.1500
1580 1422179321 38.3219
1581 1422180541 38.1952
1582 1422181762 38.6333
1583 1422182983 38.7094
1584 1422184204 38.5356
1585 1422185424 38.2595
1586 1422186645 38.5197
1587 1422187866 38.4036
1588 1422189086 38.0244
1589 1422190307 38.1684
1590 1422191528 37.9009
1591 1422192749 38.3278
1592 1422193969 38.6745
1593 1422195190 38.3973
1594 1422196411 38.1940
1595 1422197631 39.4134
1596 1422198852 41.8447
1597 1422200073 42.3379
1598 1422201293 39.0562
1599 1422202514 39.2310
1600 1422203735 39.2728
1601 1422204956 38.7781
1602 1422206176 38.8307
1603 1422207397 38.3101
1604 1422208618 38.5833
1605 1422209838 38.5889
1606 1422211059 39.1860
1607 1422212280 38.6566
1608 1422213500 37.8216
1609 1422214721 38.2103
1610 1422215942 38.3125
1611 1422217163 38.5537
1612 1422218383 38.5321
1613 1422219604 37.8945
1614 1422220825 37.7536
1615 1422222045 38.0491
1616 1422223266 38.1523
1617 1422224487 38.2304
1618 1422225708 38.1258
1619 1422226928 37.9369
1620 1422228149 37.3918
1621 1422229370 38.5014
1622 1422230590 38.0769
1623 1422231811 38.2162
1624 1422233032 38.9625
1625 1422234252 38.8840
1626 1422235473 38.2344
1627 1422236694 37.6821
1628 1422237915 38.2049
1629 1422239135 38.2979
1630 1422240356 38.5022
1631 1422241577 38.0500
1632 1422242797 37.9350
1633 1422244018 37.9756
1634 1422245239 38.3796
1635 1422246459 38.3093
1636 1422247680 37.8258
1637 1422248901 38.0409
1638 1422250122 37.5700
1639 1422251342 38.0586
1640 1422252563 38.1561
1641 1422253784 38.2902
1642 1422255004 38.4965
1643 1422256225 37.9082
1644 1422257446 38.0013
1645 1422258666 37.8333
1646 1422259887 37.6391
1647 1422261108 38.0169
1648 1422262329 37.9080
1649 1422263549 37.4081
1650 1422264770 37.5987
1651 1422265991 37.9954
1652 1422267211 37.9853
1653 1422268432 38.0510
1654 1422269653 37.3928
1655 1422270874 37.2904
1656 1422272094 37.4447
1657 1422273315 37.1236
1658 1422274536 37.5232
1659 1422275756 36.6894
1660 1422276977 36.7973
1661 1422278198 37.5110
1662 1422279418 37.4735
1663 1422280639 37.3771
1664 1422281860 37.4798
1665 1422283081 37.4983
1666 1422284301 37.3150
1667 1422285522 37.2267
1668 1422286743 37.0043
1669 1422287963 36.7103
1670 1422289184 36.9987
1671 1422290405 36.9475
1672 1422291625 37.3698
1673 1422292846 37.0146
1674 1422294067 37.3050
1675 1422295288 36.6480
1676 1422296508 37.0051
1677 1422297729 37.0870
1678 1422298950 36.7572
1679 1422300170 37.0438
1680 1422301391 36.4596
1681 1422302612 36.8458
1682 1422303833 36.6208
1683 1422305053 36.3999
1684 1422306274 36.8371
1685 1422307495 36.5710
1686 1422308715 36.6909
1687 1422309936 36.7472
1688 1422311157 36.2600
1689 1422312377 35.8776
1690 1422313598 36.1747
1691 1422314819 36.4395
1692 1422316040 35.5842
1693 1422317260 35.9541
1694 1422318481 35.8849
1695 1422319702 36.4337
1696 1422320922 36.2710
1697 1422322143 36.3343
1698 1422323364 35.7709
1699 1422324584 35.9784
1700 1422325805 36.1559
1701 1422327026 35.6297
1702 1422328247 35.6645
1703 1422329467 35.6242
1704 1422330688 35.1351
1705 1422331909 36.0054
1706 1422333129 35.2628
1707 1422334350 35.6621
1708 1422335571 34.9945
1709 1422336791 35.3172
1710 1422338012 35.1822
1711 1422339233 35.2086
1712 1422340454 35.2989
1713 1422341674 35.1620
1714 1422342895 34.6807
1715 1422344116 34.8006
1716 1422345336 34.8276
1717 1422346557 34.2192
1718 1422347778 34.4206
1719 1422348999 34.5425
1720 1422350219 34.8660
1721 1422351440 34.1804
1722 1422352661 34.5690
1723 1422353881 34.5588
1724 1422355102 34.7313
1725 1422356323 34.1027
1726 1422357543 33.9894
1727 1422358764 34.0725
1728 1422359985 34.2147
1729 1422361206 33.8357
1730 1422362426 33.8987
1731 1422363647 34.2252
1732 1422364868 33.8565
1733 1422366088 34.0322
1734 1422367309 33.6001
1735 1422368530 33.7703
1736 1422369750 33.0359
1737 1422370971 33.0820
1738 1422372192 33.4811
1739 1422373413 33.6174
1740 1422374633 33.0444
1741 1422375854 33.0799
1742 1422377075 33.1545
1743 1422378295 33.1341
1744 1422379516 32.7347
1745 1422380737 33.3155
1746 1422381958 32.7341
1747 1422383178 32.5190
1748 1422384399 32.6549
1749 1422385620 32.0859
1750 1422386840 32.4710
1751 1422388061 31.8916
1752 1422389282 32.4576
1753 1422390502 31.8204
1754 1422391723 32.3352
1755 1422392944 31.8940
1756 1422394165 31.9863
1757 1422395385 31.8491
1758 1422396606 32.1461
1759 1422397827 31.6530
1760 1422399047 31.5130
1761 1422400268 31.6030
1762 1422401489 31.3928
1763 1422402709 31.4773
1764 1422403930 31.3657
1765 1422405151 31.0153
1766 1422406372 31.2179
1767 1422407592 31.5112
1768 1422408813 31.0915
1769 1422410034 30.8063
1770 1422411254 30.8776
1771 1422412475 30.3876
1772 1422413696 30.5655
1773 1422414916 30.3522
1774 1422416137 29.8249
1775 1422417358 30.5729
1776 1422418579 30.0608
1777 1422419799 30.3229
1778 1422421020 30.0107
1779 1422422241 29.7939
1780 1422423461 30.3060
1781 1422424682 29.9384
1782 1422425903 29.7489
1783 1422427124 29.6830
1784 1422428344 29.2377
1785 1422429565 29.4774
1786 1422430786 29.2769
1787 1422432006 29.2113
1788 1422433227 28.7573
1789 1422434448 28.9631
1790 1422435668 28.8479
1791 1422436889 28.5220
1792 1422438110 28.5606
1793 1422439331 28.8545
1794 1422440551 28.5534
1795 1422441772 28.5340
1796 1422442993 28.4133
1797 1422444213 28.0784
1798 1422445434 27.9683
1799 1422446655 27.7174
1800 1422447875 28.1999
1801 1422449096 27.6826
1802 1422450317 27.5456
1803 1422451538 27.2518
1804 1422452758 27.2473
1805 1422453979 27.4752
1806 1422455200 27.2210
1807 1422456420 27.3970
1808 1422457641 27.0307
1809 1422458862 26.5213
1810 1422460083 26.5751
1811 1422461303 26.6767
1812 1422462524 26.4043
1813 1422463745 26.2062
1814 1422464965 26.7448
1815 1422466186 26.3903
1816 1422467407 26.3767
1817 1422468627 26.1096
1818 1422469848 25.8832
1819 1422471069 25.8315
1820 1422472290 25.8800
1821 1422473510 25.8127
1822 1422474731 25.3889
1823 1422475952 25.0527
1824 1422477172 25.3878
1825 1422478393 25.2345
1826 1422479614 25.2276
1827 1422480834 24.9932
1828 1422482055 25.0712
1829 1422483276 24.4627
1830 1422484497 24.8301
1831 1422485717 24.5777
1832 1422486938 24.3344
1833 1422488159 24.4068
1834 1422489379 24.4257
1835 1422490600 23.8569
1836 1422491821 23.9995
1837 1422493041 24.2578
1838 1422494262 24.1347
1839 1422495483 23.7344
1840 1422496704 23.7678
1841 1422497924 23.6539
1842 1422499145 23.4163
1843 1422500366 23.0971
1844 1422501586 23.2925
1845 1422502807 23.3239
1846 1422504028 22.8956
1847 1422505249 22.7116
1848 1422506469 22.7905
1849 1422507690 22.6858
1850 1422508911 22.2406
1851 1422510131 22.2722
1852 1422511352 22.0360
1853 1422512573 22.0669
1854 1422513793 22.1656
1855 1422515014 21.7753
1856 1422516235 22.0174
1857 1422517456 21.7467
1858 1422518676 21.3614
1859 1422519897 21.8813
1860 1422521118 21.8087
1861 1422522338 21.0629
1862 1422523559 21.1297
1863 1422524780 21.0177
1864 1422526000 20.9457
1865 1422527221 20.7923
1866 1422528442 20.5364
1867 1422529663 20.3920
1868 1422530883 20.4438
1869 1422532104 20.2071
1870 1422533325 20.0833
1871 1422534545 20.1291
1872 1422535766 20.1856
1873 1422536987 19.8242
1874 1422538208 19.9957
1875 1422539428 19.8717
1876 1422540649 19.4465
1877 1422541870 19.4907
1878 1422543090 19.3877
1879 1422544311 19.3946
1880 1422545532 19.3540
1881 1422546752 19.2461
1882 1422547973 18.8136
1883 1422549194 18.7795
1884 1422550415 18.5239
1885 1422551635 18.5835
1886 1422552856 18.4264
1887 1422554077 18.4197
1888 1422555297 18.7345
1889 1422556518 18.5333
1890 1422557739 18.0529
1891 1422558959 18.1051
1892 1422560180 18.2244
1893 1422561401 17.8039
1894 1422562622 17.5462
1895 1422563842 17.6135
1896 1422565063 17.4099
1897 1422566284 17.2521
1898 1422567504 17.1591
1899 1422568725 16.9408
1900 1422569946 16.8688
1901 1422571166 16.8465
1902 1422572387 16.8338
1903 1422573608 16.7768
1904 1422574829 16.5136
1905 1422576049 16.4331
1906 1422577270 16.6078
1907 1422578491 16.3935
1908 1422579711 16.1551
1909 1422580932 16.2348
1910 1422582153 16.0558
1911 1422583374 15.8345
1912 1422584594 15.6834
1913 1422585815 15.6606
1914 1422587036 15.5905
1915 1422588256 15.3803
1916 1422589477 15.4227
1917 1422590698 15.2515
1918 1422591918 15.3157
1919 1422593139 15.1923
1920 1422594360 14.9842
1921 1422595581 14.9115
1922 1422596801 14.8011
1923 1422598022 14.6172
1924 1422599243 14.7554
1925 1422600463 14.6591
1926 1422601684 14.4315
1927 1422602905 14.2796
1928 1422604125 14.1614
1929 1422605346 14.1306
1930 1422606567 13.9209
1931 1422607788 13.8600
1932 1422609008 13.8666
1933 1422610229 13.8443
1934 1422611450 13.8305
1935 1422612670 13.7904
1936 1422613891 13.5249
1937 1422615112 13.5297
1938 1422616333 13.4084
1939 1422617553 13.2086
1940 1422618774 13.2224
1941 1422619995 13.0012
1942 1422621215 12.9232
1943 1422622436 12.8156
1944 1422623657 12.8925
1945 1422624877 12.8625
1946 1422626098 12.7046
1947 1422627319 12.5235
1948 1422628540 12.3002
1949 1422629760 12.4643
1950 1422630981 12.1080
1951 1422632202 12.0324
1952 1422633422 12.0314
1953 1422634643 12.0688
1954 1422635864 11.9363
1955 1422637084 11.8402
1956 1422638305 11.7715
1957 1422639526 11.7274
1958 1422640747 11.6679
1959 1422641967 11.5809
1960 1422643188 11.5911
1961 1422644409 11.3092
1962 1422645629 11.3931
1963 1422646850 11.2303
1964 1422648071 11.1231
1965 1422649291 11.2210
1966 1422650512 11.2142
1967 1422651733 11.0969
1968 1422652954 11.0636
1969 1422654174 10.9320
1970 1422655395 10.6947
1971 1422656616 10.4970
1972 1422657836 10.5683
1973 1422659057 10.6330
1974 1422660278 10.4873
1975 1422661499 10.4417
1976 1422662719 10.3202
1977 1422663940 10.3922
1978 1422665161 10.2824
1979 1422666381 10.2431
1980 1422667602 10.2454
1981 1422668823 10.1834
1982 1422670043 10.0488
1983 1422671264 10.0126
1984 1422672485 9.9915
1985 1422673706 9.9315
1986 1422674926 9.8591
1987 1422676147 9.7738
1988 1422677368 9.6908
1989 1422678588 9.5755
1990 1422679809 9.6520
1991 1422681030 9.5322
1992 1422682250 9.3641
1993 1422683471 9.2985
1994 1422684692 9.3448
1995 1422685913 9.3651
1996 1422687133 9.2054
1997 1422688354 9.1984
1998 1422689575 9.2116
1999 1422690795 9.1405
2000 1422692016 9.1627
2001 1422693237 9.0348
2002 1422694458 8.9629
2003 1422695678 9.0205
2004 1422696899 9.0613
2005 1422698120 8.8365
2006 1422699340 8.9508
2007 1422700561 9.2029
2008 1422701782 8.9199
2009 1422703002 8.7531
2010 1422704223 8.6682
2011 1422705444 8.5618
2012 1422706665 8.5952
2013 1422707885 8.5033
2014 1422709106 8.6394
2015 1422710327 8.5083
2016 1422711547 8.5044
2017 1422712768 8.4490
2018 1422713989 8.3505
2019 1422715209 8.3317
2020 1422716430 8.4167
2021 1422717651 8.3705
2022 1422718872 8.3335
2023 1422720092 8.2397
2024 1422721313 8.2780
2025 1422722534 8.1863
2026 1422723754 8.2377
2027 1422724975 8.2182
2028 1422726196 8.2880
2029 1422727416 8.1659
2030 1422728637 8.0752
2031 1422729858 8.1871
2032 1422731079 8.0033
2033 1422732299 8.0157
2034 1422733520 8.0332
2035 1422734741 8.1258
2036 1422735961 8.0562
2037 1422737182 8.0788
2038 1422738403 8.0148
2039 1422739624 7.9393
2040 1422740844 7.8360
2041 1422742065 7.9564
2042 1422743286 7.9599
2043 1422744506 7.9225
2044 1422745727 7.8836
2045 1422746948 7.8756
2046 1422748168 7.9405
2047 1422749389 8.2552
