# File: 20-06-07T194851.ast
# NOTEA     = None Attached.  RTLSDR Dongle Test
# NOTEB     = Spectral Integration
# OBSERVER  = Science Aficionado
# DEVICE    = rtl=0,bias=1
# DATADIR   = ../data/
# SITE      = None Attached.  RTLSDR Dongle Test
# CITY      = Seattle
# REGION    = Washington
# COUNTRY   = US
# TELTYPE   = UW CSE 490W Dish
# FRAME     = TOPO
# GAIN1     = 49.0
# GAIN2     = 11.0
# GAIN3     = 11.0
# GAIN4     = 0.0
# Count     = 2500
# CenterFreq= 1421500000.0
# Bandwidth = 2500000.0
# Duration  = 41.948568
# DeltaX    = 5859.375
# TSYS      = 200.0
# TRX       = 100.0
# TRMS      = 2.0
# TINT      = 1.0
# KPERC     = 100.0
# GAINFACT  = 1.0
# BUNIT     = Counts
# NCHAN     = 2048
# NSPEC     = 1
# NTIME     = 0
# NSAMPLES  = 0
# EPEAK     = 4.10875183718
# ERMS      = 0.995973393526
# EMJD      = 58568.808999981004 
# REFCHAN   = 1024.0
# REFSAMPL  = 256.0
# NAVE      = 50
# NMEDIAN   = 1024
# Fft_rate  = 5000
# UTC       = 2020-06-07 19:48:51.110288
# SECONDS   =       0.0000000000 
# LST       = 09:04:45.660
# AZ        = 180.0
# EL        = 90.0
# TELLON    = -57:41:09.900
# TELLAT    = +47:39:13.800
# RA        = 09:02:00.650
# DEC       = +47:48:45.200
# GALLON    = 171:46:36.30
# GALLAT    = +41:19:09.20
# ALT_SUN   = +36:51:20.4
# AZ_SUN    = +264:09:58.9
# ETAA      = 0.8
# ETAB      = 0.99
# POLANGLE  = 0.0
# TELSIZEAM = 1.0
# TELSIZEBM = 1.0
# AST_VERS  = 05.01
0000 1420250610 8.0335
0001 1420251831 7.9439
0002 1420253051 7.9998
0003 1420254272 8.0346
0004 1420255493 7.8528
0005 1420256713 7.9632
0006 1420257934 7.9564
0007 1420259155 7.9911
0008 1420260375 8.0805
0009 1420261596 8.0630
0010 1420262817 8.0166
0011 1420264038 7.9926
0012 1420265258 8.1072
0013 1420266479 8.2748
0014 1420267700 8.0729
0015 1420268920 8.0230
0016 1420270141 8.1228
0017 1420271362 7.9841
0018 1420272583 8.0633
0019 1420273803 8.1469
0020 1420275024 8.1826
0021 1420276245 8.2725
0022 1420277465 8.3110
0023 1420278686 8.2976
0024 1420279907 8.2032
0025 1420281127 8.3260
0026 1420282348 8.3228
0027 1420283569 8.2947
0028 1420284790 8.3729
0029 1420286010 8.3440
0030 1420287231 8.4341
0031 1420288452 8.4614
0032 1420289672 8.5114
0033 1420290893 8.6093
0034 1420292114 8.6427
0035 1420293334 8.6514
0036 1420294555 8.6238
0037 1420295776 8.6836
0038 1420296997 8.8778
0039 1420298217 8.7646
0040 1420299438 8.8446
0041 1420300659 9.2872
0042 1420301879 9.0054
0043 1420303100 8.8640
0044 1420304321 8.9440
0045 1420305541 8.9589
0046 1420306762 9.0516
0047 1420307983 9.2515
0048 1420309204 9.1588
0049 1420310424 9.2624
0050 1420311645 9.3462
0051 1420312866 9.3519
0052 1420314086 9.4540
0053 1420315307 9.3787
0054 1420316528 9.3050
0055 1420317749 9.4200
0056 1420318969 9.6196
0057 1420320190 9.8205
0058 1420321411 9.8338
0059 1420322631 9.6813
0060 1420323852 9.9083
0061 1420325073 9.9374
0062 1420326293 9.9015
0063 1420327514 9.9792
0064 1420328735 10.0818
0065 1420329956 9.9848
0066 1420331176 10.0649
0067 1420332397 10.2291
0068 1420333618 10.2368
0069 1420334838 10.2713
0070 1420336059 10.2276
0071 1420337280 10.4043
0072 1420338500 10.4987
0073 1420339721 10.5731
0074 1420340942 10.6389
0075 1420342163 10.6365
0076 1420343383 10.7485
0077 1420344604 10.8046
0078 1420345825 10.8170
0079 1420347045 10.9458
0080 1420348266 10.9392
0081 1420349487 11.1194
0082 1420350708 10.9908
0083 1420351928 11.0538
0084 1420353149 11.2211
0085 1420354370 11.4329
0086 1420355590 11.3694
0087 1420356811 11.4061
0088 1420358032 11.5481
0089 1420359252 11.5770
0090 1420360473 11.5175
0091 1420361694 11.6582
0092 1420362915 11.6214
0093 1420364135 11.7827
0094 1420365356 11.7371
0095 1420366577 11.8779
0096 1420367797 12.0578
0097 1420369018 12.0445
0098 1420370239 11.9953
0099 1420371459 12.1442
0100 1420372680 12.1633
0101 1420373901 12.2365
0102 1420375122 12.3633
0103 1420376342 12.6411
0104 1420377563 12.7349
0105 1420378784 12.6859
0106 1420380004 12.6746
0107 1420381225 12.6807
0108 1420382446 12.9076
0109 1420383666 13.0593
0110 1420384887 13.0941
0111 1420386108 13.2321
0112 1420387329 13.0895
0113 1420388549 13.1888
0114 1420389770 13.1854
0115 1420390991 13.4592
0116 1420392211 13.5022
0117 1420393432 13.5406
0118 1420394653 13.8321
0119 1420395874 13.8945
0120 1420397094 14.0403
0121 1420398315 13.8887
0122 1420399536 13.8640
0123 1420400756 14.3096
0124 1420401977 14.3474
0125 1420403198 14.3086
0126 1420404418 14.2160
0127 1420405639 14.4205
0128 1420406860 14.4828
0129 1420408081 14.8007
0130 1420409301 14.8258
0131 1420410522 14.7462
0132 1420411743 14.9377
0133 1420412963 15.0529
0134 1420414184 15.1896
0135 1420415405 15.3380
0136 1420416625 15.6039
0137 1420417846 15.4691
0138 1420419067 15.4510
0139 1420420288 15.5432
0140 1420421508 15.5688
0141 1420422729 15.8818
0142 1420423950 15.7964
0143 1420425170 15.9499
0144 1420426391 15.9860
0145 1420427612 16.1892
0146 1420428833 16.2693
0147 1420430053 16.4201
0148 1420431274 16.5693
0149 1420432495 16.4865
0150 1420433715 16.5930
0151 1420434936 16.5581
0152 1420436157 16.7388
0153 1420437377 16.9659
0154 1420438598 17.1072
0155 1420439819 17.1494
0156 1420441040 17.0328
0157 1420442260 17.2151
0158 1420443481 17.4703
0159 1420444702 17.6980
0160 1420445922 17.7563
0161 1420447143 17.7654
0162 1420448364 17.8066
0163 1420449584 17.9027
0164 1420450805 18.0372
0165 1420452026 18.0555
0166 1420453247 18.2642
0167 1420454467 18.2887
0168 1420455688 18.4982
0169 1420456909 18.4617
0170 1420458129 18.6962
0171 1420459350 18.5577
0172 1420460571 18.8917
0173 1420461791 18.7246
0174 1420463012 18.8968
0175 1420464233 18.7381
0176 1420465454 18.9570
0177 1420466674 19.1748
0178 1420467895 19.2714
0179 1420469116 19.2599
0180 1420470336 19.3445
0181 1420471557 19.6545
0182 1420472778 19.6744
0183 1420473999 19.8855
0184 1420475219 20.1109
0185 1420476440 19.9953
0186 1420477661 20.0261
0187 1420478881 20.2500
0188 1420480102 20.4622
0189 1420481323 20.6107
0190 1420482543 20.7262
0191 1420483764 20.7937
0192 1420484985 20.6439
0193 1420486206 20.7395
0194 1420487426 20.6416
0195 1420488647 20.7971
0196 1420489868 21.1654
0197 1420491088 21.6104
0198 1420492309 21.5651
0199 1420493530 21.5784
0200 1420494750 21.6388
0201 1420495971 22.1776
0202 1420497192 22.3881
0203 1420498413 22.9319
0204 1420499633 23.1136
0205 1420500854 22.4606
0206 1420502075 22.3168
0207 1420503295 22.5384
0208 1420504516 22.5256
0209 1420505737 22.4970
0210 1420506958 22.5278
0211 1420508178 22.5769
0212 1420509399 22.6130
0213 1420510620 23.0932
0214 1420511840 22.9060
0215 1420513061 23.2048
0216 1420514282 22.9086
0217 1420515502 23.7105
0218 1420516723 23.5347
0219 1420517944 23.4783
0220 1420519165 23.6123
0221 1420520385 23.8756
0222 1420521606 23.9915
0223 1420522827 24.0152
0224 1420524047 24.1118
0225 1420525268 24.3681
0226 1420526489 24.3213
0227 1420527709 24.2557
0228 1420528930 24.3437
0229 1420530151 24.6676
0230 1420531372 24.4562
0231 1420532592 24.3367
0232 1420533813 24.7987
0233 1420535034 24.8135
0234 1420536254 25.1598
0235 1420537475 25.0227
0236 1420538696 25.3529
0237 1420539916 25.4354
0238 1420541137 25.4070
0239 1420542358 25.6991
0240 1420543579 25.9290
0241 1420544799 25.5859
0242 1420546020 25.9399
0243 1420547241 26.1221
0244 1420548461 25.7990
0245 1420549682 26.2840
0246 1420550903 26.1538
0247 1420552124 26.2652
0248 1420553344 26.5999
0249 1420554565 26.6465
0250 1420555786 26.6153
0251 1420557006 26.6839
0252 1420558227 26.6132
0253 1420559448 26.7449
0254 1420560668 26.9104
0255 1420561889 26.9043
0256 1420563110 26.9706
0257 1420564331 26.9593
0258 1420565551 27.3302
0259 1420566772 27.3276
0260 1420567993 27.4196
0261 1420569213 27.5746
0262 1420570434 27.7705
0263 1420571655 27.6436
0264 1420572875 27.9580
0265 1420574096 27.9905
0266 1420575317 27.9519
0267 1420576538 27.8197
0268 1420577758 28.3785
0269 1420578979 27.6440
0270 1420580200 28.5096
0271 1420581420 28.3827
0272 1420582641 28.7811
0273 1420583862 28.9155
0274 1420585083 28.9864
0275 1420586303 29.0014
0276 1420587524 28.7643
0277 1420588745 29.0209
0278 1420589965 29.2056
0279 1420591186 28.9418
0280 1420592407 28.8594
0281 1420593627 29.5148
0282 1420594848 29.7116
0283 1420596069 29.6289
0284 1420597290 29.5101
0285 1420598510 29.9240
0286 1420599731 30.1725
0287 1420600952 29.7776
0288 1420602172 30.1201
0289 1420603393 29.9389
0290 1420604614 30.1152
0291 1420605834 30.5356
0292 1420607055 30.5680
0293 1420608276 30.0964
0294 1420609497 30.5917
0295 1420610717 30.7050
0296 1420611938 30.8087
0297 1420613159 30.8917
0298 1420614379 31.1350
0299 1420615600 30.7363
0300 1420616821 30.7684
0301 1420618041 30.8614
0302 1420619262 31.2757
0303 1420620483 31.5081
0304 1420621704 31.0090
0305 1420622924 30.9737
0306 1420624145 31.1418
0307 1420625366 31.4944
0308 1420626586 31.4949
0309 1420627807 32.0690
0310 1420629028 31.7611
0311 1420630249 31.2542
0312 1420631469 31.6617
0313 1420632690 31.9714
0314 1420633911 32.5985
0315 1420635131 34.0516
0316 1420636352 31.9157
0317 1420637573 32.3388
0318 1420638793 31.9794
0319 1420640014 32.1203
0320 1420641235 32.3012
0321 1420642456 32.3073
0322 1420643676 32.5430
0323 1420644897 32.2027
0324 1420646118 32.5629
0325 1420647338 32.9692
0326 1420648559 32.5962
0327 1420649780 32.2320
0328 1420651000 33.1078
0329 1420652221 32.6707
0330 1420653442 33.0745
0331 1420654663 32.7607
0332 1420655883 33.2530
0333 1420657104 33.2162
0334 1420658325 33.3345
0335 1420659545 33.5334
0336 1420660766 33.5020
0337 1420661987 33.0046
0338 1420663208 33.8768
0339 1420664428 33.4707
0340 1420665649 33.8033
0341 1420666870 34.0408
0342 1420668090 33.7318
0343 1420669311 33.9175
0344 1420670532 34.0258
0345 1420671752 33.2601
0346 1420672973 34.0310
0347 1420674194 34.1488
0348 1420675415 34.3346
0349 1420676635 33.9109
0350 1420677856 34.1843
0351 1420679077 34.3024
0352 1420680297 34.0012
0353 1420681518 34.0805
0354 1420682739 34.1002
0355 1420683959 34.7450
0356 1420685180 34.7107
0357 1420686401 34.7815
0358 1420687622 34.8233
0359 1420688842 34.6896
0360 1420690063 34.3794
0361 1420691284 34.5621
0362 1420692504 34.5261
0363 1420693725 35.2029
0364 1420694946 34.9730
0365 1420696166 34.6012
0366 1420697387 34.3024
0367 1420698608 35.0498
0368 1420699829 34.8760
0369 1420701049 35.1914
0370 1420702270 35.2972
0371 1420703491 35.0356
0372 1420704711 35.3959
0373 1420705932 34.8675
0374 1420707153 35.4151
0375 1420708374 35.4369
0376 1420709594 35.1697
0377 1420710815 35.2249
0378 1420712036 35.0269
0379 1420713256 35.3419
0380 1420714477 35.2851
0381 1420715698 34.9070
0382 1420716918 35.2005
0383 1420718139 35.7683
0384 1420719360 35.2070
0385 1420720581 35.5432
0386 1420721801 35.7121
0387 1420723022 35.7896
0388 1420724243 35.6926
0389 1420725463 35.5551
0390 1420726684 35.9129
0391 1420727905 35.2852
0392 1420729125 35.5021
0393 1420730346 35.9001
0394 1420731567 35.6515
0395 1420732788 35.9430
0396 1420734008 35.8244
0397 1420735229 36.5749
0398 1420736450 35.9724
0399 1420737670 35.9877
0400 1420738891 36.0155
0401 1420740112 36.0297
0402 1420741333 35.8963
0403 1420742553 36.5378
0404 1420743774 36.3220
0405 1420744995 36.4415
0406 1420746215 35.8325
0407 1420747436 35.4138
0408 1420748657 36.2253
0409 1420749877 35.9675
0410 1420751098 36.1043
0411 1420752319 36.2444
0412 1420753540 36.2475
0413 1420754760 35.8767
0414 1420755981 36.2712
0415 1420757202 36.5460
0416 1420758422 36.5224
0417 1420759643 36.3371
0418 1420760864 36.3196
0419 1420762084 36.5112
0420 1420763305 36.4736
0421 1420764526 35.9254
0422 1420765747 35.8654
0423 1420766967 36.1356
0424 1420768188 36.5912
0425 1420769409 37.1398
0426 1420770629 37.5430
0427 1420771850 36.6365
0428 1420773071 36.7375
0429 1420774291 36.7120
0430 1420775512 36.2978
0431 1420776733 36.7917
0432 1420777954 36.7319
0433 1420779174 36.7700
0434 1420780395 36.7162
0435 1420781616 36.4951
0436 1420782836 36.1754
0437 1420784057 36.4706
0438 1420785278 36.5969
0439 1420786499 36.9206
0440 1420787719 36.9588
0441 1420788940 36.6593
0442 1420790161 36.6127
0443 1420791381 36.4261
0444 1420792602 36.6869
0445 1420793823 36.6208
0446 1420795043 36.4103
0447 1420796264 37.1537
0448 1420797485 37.0940
0449 1420798706 37.1247
0450 1420799926 37.4410
0451 1420801147 40.9623
0452 1420802368 39.0579
0453 1420803588 37.0774
0454 1420804809 36.9219
0455 1420806030 36.8189
0456 1420807250 36.8583
0457 1420808471 36.8335
0458 1420809692 36.4083
0459 1420810913 36.7680
0460 1420812133 36.8994
0461 1420813354 37.1117
0462 1420814575 36.8171
0463 1420815795 37.3345
0464 1420817016 36.6303
0465 1420818237 36.8579
0466 1420819458 36.7798
0467 1420820678 36.7479
0468 1420821899 36.9803
0469 1420823120 37.0678
0470 1420824340 37.0281
0471 1420825561 36.7161
0472 1420826782 36.5803
0473 1420828002 36.5876
0474 1420829223 36.4981
0475 1420830444 37.1777
0476 1420831665 36.4205
0477 1420832885 36.7047
0478 1420834106 36.9281
0479 1420835327 36.6113
0480 1420836547 36.8132
0481 1420837768 36.9953
0482 1420838989 36.5866
0483 1420840209 36.5400
0484 1420841430 36.8080
0485 1420842651 37.1381
0486 1420843872 37.1120
0487 1420845092 36.6438
0488 1420846313 36.9633
0489 1420847534 37.2871
0490 1420848754 37.1728
0491 1420849975 36.6875
0492 1420851196 36.7996
0493 1420852416 36.4224
0494 1420853637 37.0506
0495 1420854858 37.0219
0496 1420856079 36.5413
0497 1420857299 36.8880
0498 1420858520 36.3293
0499 1420859741 36.4587
0500 1420860961 37.2634
0501 1420862182 36.4474
0502 1420863403 36.7488
0503 1420864624 36.9317
0504 1420865844 36.4600
0505 1420867065 36.7771
0506 1420868286 36.6543
0507 1420869506 36.8995
0508 1420870727 36.8647
0509 1420871948 36.7889
0510 1420873168 36.3279
0511 1420874389 36.5038
0512 1420875610 36.6726
0513 1420876831 36.8093
0514 1420878051 37.0093
0515 1420879272 36.8254
0516 1420880493 37.4353
0517 1420881713 37.2611
0518 1420882934 36.4410
0519 1420884155 36.9933
0520 1420885375 36.5022
0521 1420886596 36.4379
0522 1420887817 36.3373
0523 1420889038 37.0893
0524 1420890258 37.0283
0525 1420891479 36.3175
0526 1420892700 37.1220
0527 1420893920 36.7884
0528 1420895141 36.8982
0529 1420896362 36.8215
0530 1420897583 36.6057
0531 1420898803 36.3680
0532 1420900024 36.6897
0533 1420901245 36.4396
0534 1420902465 36.9151
0535 1420903686 36.5242
0536 1420904907 36.1083
0537 1420906127 36.9386
0538 1420907348 36.2338
0539 1420908569 36.3436
0540 1420909790 36.5058
0541 1420911010 36.4437
0542 1420912231 36.3836
0543 1420913452 35.9923
0544 1420914672 36.4027
0545 1420915893 36.7067
0546 1420917114 37.0621
0547 1420918334 36.7338
0548 1420919555 37.1870
0549 1420920776 36.3670
0550 1420921997 35.8583
0551 1420923217 36.1628
0552 1420924438 35.9226
0553 1420925659 36.7839
0554 1420926879 36.4501
0555 1420928100 36.5079
0556 1420929321 36.4729
0557 1420930541 36.2208
0558 1420931762 36.6570
0559 1420932983 36.6212
0560 1420934204 36.6015
0561 1420935424 36.5306
0562 1420936645 36.2785
0563 1420937866 36.2191
0564 1420939086 36.4238
0565 1420940307 36.7646
0566 1420941528 36.2449
0567 1420942749 36.6121
0568 1420943969 36.2446
0569 1420945190 36.4382
0570 1420946411 36.9199
0571 1420947631 36.7565
0572 1420948852 36.7778
0573 1420950073 36.3765
0574 1420951293 36.2143
0575 1420952514 36.6586
0576 1420953735 36.4957
0577 1420954956 36.4600
0578 1420956176 36.5174
0579 1420957397 35.8707
0580 1420958618 36.3669
0581 1420959838 36.0779
0582 1420961059 36.0470
0583 1420962280 36.3419
0584 1420963500 36.1495
0585 1420964721 36.5850
0586 1420965942 36.1275
0587 1420967163 36.5311
0588 1420968383 36.6786
0589 1420969604 36.4503
0590 1420970825 36.1570
0591 1420972045 36.2641
0592 1420973266 36.0481
0593 1420974487 35.8276
0594 1420975708 35.9232
0595 1420976928 36.2880
0596 1420978149 36.1865
0597 1420979370 35.9280
0598 1420980590 35.8901
0599 1420981811 36.3958
0600 1420983032 36.2052
0601 1420984252 36.1863
0602 1420985473 36.4125
0603 1420986694 35.9180
0604 1420987915 36.2866
0605 1420989135 36.5021
0606 1420990356 36.1773
0607 1420991577 36.6345
0608 1420992797 36.4133
0609 1420994018 36.4406
0610 1420995239 35.8972
0611 1420996459 35.7360
0612 1420997680 36.6242
0613 1420998901 36.3091
0614 1421000122 36.4845
0615 1421001342 36.1231
0616 1421002563 36.2815
0617 1421003784 35.9806
0618 1421005004 36.5700
0619 1421006225 36.3200
0620 1421007446 36.5196
0621 1421008666 36.2032
0622 1421009887 36.2693
0623 1421011108 35.7257
0624 1421012329 36.4475
0625 1421013549 36.8769
0626 1421014770 36.6893
0627 1421015991 36.8118
0628 1421017211 36.6866
0629 1421018432 36.5709
0630 1421019653 36.1170
0631 1421020874 36.1567
0632 1421022094 36.6007
0633 1421023315 36.1903
0634 1421024536 36.8484
0635 1421025756 36.4279
0636 1421026977 36.0920
0637 1421028198 35.9737
0638 1421029418 36.5245
0639 1421030639 36.0842
0640 1421031860 35.9995
0641 1421033081 36.4215
0642 1421034301 36.2671
0643 1421035522 35.9468
0644 1421036743 36.1188
0645 1421037963 36.5541
0646 1421039184 36.2672
0647 1421040405 36.2127
0648 1421041625 36.4664
0649 1421042846 36.7316
0650 1421044067 35.8129
0651 1421045288 36.3628
0652 1421046508 36.3344
0653 1421047729 36.2733
0654 1421048950 35.9321
0655 1421050170 36.1123
0656 1421051391 36.5009
0657 1421052612 36.1594
0658 1421053833 36.4426
0659 1421055053 36.4023
0660 1421056274 36.6070
0661 1421057495 36.4799
0662 1421058715 36.7065
0663 1421059936 36.6992
0664 1421061157 35.8414
0665 1421062377 36.6118
0666 1421063598 36.6929
0667 1421064819 36.6959
0668 1421066040 36.2260
0669 1421067260 36.4695
0670 1421068481 36.3209
0671 1421069702 36.1942
0672 1421070922 36.2024
0673 1421072143 36.4195
0674 1421073364 36.6555
0675 1421074584 36.5468
0676 1421075805 36.5540
0677 1421077026 36.2559
0678 1421078247 36.4952
0679 1421079467 36.6276
0680 1421080688 36.5642
0681 1421081909 37.3219
0682 1421083129 37.2652
0683 1421084350 37.1455
0684 1421085571 36.7007
0685 1421086791 36.2901
0686 1421088012 36.7462
0687 1421089233 36.8813
0688 1421090454 36.9037
0689 1421091674 36.8395
0690 1421092895 37.1350
0691 1421094116 36.8712
0692 1421095336 36.9206
0693 1421096557 36.6007
0694 1421097778 36.6752
0695 1421098999 36.7716
0696 1421100219 36.7908
0697 1421101440 36.4322
0698 1421102661 36.9229
0699 1421103881 36.9646
0700 1421105102 36.8702
0701 1421106323 36.4826
0702 1421107543 36.9645
0703 1421108764 36.8227
0704 1421109985 36.7700
0705 1421111206 37.3389
0706 1421112426 37.1307
0707 1421113647 36.9776
0708 1421114868 36.5654
0709 1421116088 36.5892
0710 1421117309 37.4168
0711 1421118530 37.3236
0712 1421119750 37.2874
0713 1421120971 37.0202
0714 1421122192 37.1664
0715 1421123413 37.0711
0716 1421124633 37.1686
0717 1421125854 37.3062
0718 1421127075 37.0174
0719 1421128295 37.0209
0720 1421129516 37.5577
0721 1421130737 37.0688
0722 1421131958 36.9243
0723 1421133178 37.1781
0724 1421134399 37.1819
0725 1421135620 37.8816
0726 1421136840 37.2041
0727 1421138061 37.1863
0728 1421139282 37.5848
0729 1421140502 37.2758
0730 1421141723 37.5536
0731 1421142944 36.8091
0732 1421144165 36.4814
0733 1421145385 37.0659
0734 1421146606 37.5916
0735 1421147827 38.2600
0736 1421149047 39.2591
0737 1421150268 38.2637
0738 1421151489 37.7289
0739 1421152709 37.6695
0740 1421153930 38.1656
0741 1421155151 37.7989
0742 1421156372 38.3266
0743 1421157592 38.2189
0744 1421158813 38.5221
0745 1421160034 37.8153
0746 1421161254 37.8934
0747 1421162475 38.1749
0748 1421163696 37.7241
0749 1421164916 38.0329
0750 1421166137 38.1525
0751 1421167358 37.9251
0752 1421168579 37.8751
0753 1421169799 38.2600
0754 1421171020 38.4065
0755 1421172241 37.9989
0756 1421173461 37.5684
0757 1421174682 37.6754
0758 1421175903 38.3320
0759 1421177124 38.2603
0760 1421178344 38.0792
0761 1421179565 37.9101
0762 1421180786 37.8926
0763 1421182006 37.2712
0764 1421183227 38.2977
0765 1421184448 38.9399
0766 1421185668 38.6678
0767 1421186889 38.7946
0768 1421188110 38.7808
0769 1421189331 38.4952
0770 1421190551 38.1771
0771 1421191772 38.4273
0772 1421192993 38.4138
0773 1421194213 38.8089
0774 1421195434 38.7031
0775 1421196655 38.4027
0776 1421197875 38.9760
0777 1421199096 38.7915
0778 1421200317 38.9448
0779 1421201538 38.8255
0780 1421202758 38.9312
0781 1421203979 38.3918
0782 1421205200 38.6803
0783 1421206420 38.6701
0784 1421207641 38.8619
0785 1421208862 38.7033
0786 1421210083 38.6280
0787 1421211303 38.8164
0788 1421212524 39.5078
0789 1421213745 38.9297
0790 1421214965 39.5217
0791 1421216186 40.1385
0792 1421217407 40.5053
0793 1421218627 40.0284
0794 1421219848 39.6844
0795 1421221069 39.9400
0796 1421222290 39.7136
0797 1421223510 39.7167
0798 1421224731 40.0465
0799 1421225952 39.6101
0800 1421227172 39.6518
0801 1421228393 39.9533
0802 1421229614 39.7277
0803 1421230834 39.5721
0804 1421232055 39.4843
0805 1421233276 39.5354
0806 1421234497 39.1690
0807 1421235717 40.2414
0808 1421236938 39.7455
0809 1421238159 39.7785
0810 1421239379 39.4298
0811 1421240600 39.3462
0812 1421241821 40.4005
0813 1421243041 39.4135
0814 1421244262 39.8706
0815 1421245483 39.7964
0816 1421246704 39.9228
0817 1421247924 40.0267
0818 1421249145 40.5827
0819 1421250366 39.8992
0820 1421251586 39.7071
0821 1421252807 40.1748
0822 1421254028 40.0178
0823 1421255249 40.6099
0824 1421256469 39.8420
0825 1421257690 40.9998
0826 1421258911 40.6383
0827 1421260131 40.4959
0828 1421261352 40.3381
0829 1421262573 40.5341
0830 1421263793 40.3045
0831 1421265014 40.2995
0832 1421266235 40.6098
0833 1421267456 40.2216
0834 1421268676 40.8890
0835 1421269897 40.2470
0836 1421271118 40.6777
0837 1421272338 40.5120
0838 1421273559 41.4144
0839 1421274780 41.6731
0840 1421276000 40.9000
0841 1421277221 41.2946
0842 1421278442 40.6134
0843 1421279663 41.7845
0844 1421280883 41.3432
0845 1421282104 40.9491
0846 1421283325 41.7648
0847 1421284545 42.2654
0848 1421285766 43.1206
0849 1421286987 41.7755
0850 1421288208 41.8195
0851 1421289428 41.8201
0852 1421290649 41.5646
0853 1421291870 41.3503
0854 1421293090 41.5307
0855 1421294311 41.3791
0856 1421295532 41.4874
0857 1421296752 41.6035
0858 1421297973 41.0227
0859 1421299194 41.5707
0860 1421300415 41.4464
0861 1421301635 41.8780
0862 1421302856 41.3927
0863 1421304077 41.5713
0864 1421305297 42.0325
0865 1421306518 42.0027
0866 1421307739 42.0660
0867 1421308959 42.1902
0868 1421310180 41.7995
0869 1421311401 41.9267
0870 1421312622 42.0065
0871 1421313842 41.5925
0872 1421315063 41.3655
0873 1421316284 42.4426
0874 1421317504 42.3510
0875 1421318725 42.0726
0876 1421319946 41.9622
0877 1421321166 42.1094
0878 1421322387 42.6336
0879 1421323608 42.4297
0880 1421324829 42.1497
0881 1421326049 42.3850
0882 1421327270 42.4788
0883 1421328491 42.1418
0884 1421329711 42.1159
0885 1421330932 42.5220
0886 1421332153 43.4638
0887 1421333374 43.1633
0888 1421334594 43.3193
0889 1421335815 42.4335
0890 1421337036 42.6635
0891 1421338256 43.4184
0892 1421339477 43.1074
0893 1421340698 43.1207
0894 1421341918 43.0626
0895 1421343139 42.8846
0896 1421344360 42.9071
0897 1421345581 42.6702
0898 1421346801 43.0071
0899 1421348022 43.2227
0900 1421349243 43.0012
0901 1421350463 43.4538
0902 1421351684 44.0728
0903 1421352905 45.5235
0904 1421354125 44.2622
0905 1421355346 42.7040
0906 1421356567 42.7210
0907 1421357788 43.1405
0908 1421359008 43.4124
0909 1421360229 43.0227
0910 1421361450 42.5931
0911 1421362670 43.1444
0912 1421363891 43.0138
0913 1421365112 43.7869
0914 1421366333 44.2756
0915 1421367553 44.0228
0916 1421368774 43.7495
0917 1421369995 43.5519
0918 1421371215 43.4430
0919 1421372436 43.3141
0920 1421373657 43.3454
0921 1421374877 43.5275
0922 1421376098 44.1358
0923 1421377319 43.6656
0924 1421378540 44.0149
0925 1421379760 43.5286
0926 1421380981 44.5034
0927 1421382202 43.5359
0928 1421383422 43.8669
0929 1421384643 44.4902
0930 1421385864 44.4233
0931 1421387084 43.7006
0932 1421388305 44.2515
0933 1421389526 44.0012
0934 1421390747 43.7850
0935 1421391967 44.2104
0936 1421393188 44.1739
0937 1421394409 44.3278
0938 1421395629 44.0201
0939 1421396850 44.1826
0940 1421398071 44.3387
0941 1421399291 44.1883
0942 1421400512 44.4101
0943 1421401733 44.8242
0944 1421402954 44.6640
0945 1421404174 44.3709
0946 1421405395 44.7444
0947 1421406616 44.8821
0948 1421407836 44.8812
0949 1421409057 44.4321
0950 1421410278 44.4167
0951 1421411499 44.4646
0952 1421412719 44.3397
0953 1421413940 44.8737
0954 1421415161 45.2956
0955 1421416381 44.8801
0956 1421417602 45.2807
0957 1421418823 45.1402
0958 1421420043 45.9804
0959 1421421264 46.3155
0960 1421422485 45.4315
0961 1421423706 44.4732
0962 1421424926 44.4624
0963 1421426147 44.7552
0964 1421427368 45.1597
0965 1421428588 45.1431
0966 1421429809 44.8083
0967 1421431030 44.5945
0968 1421432250 44.7571
0969 1421433471 45.5368
0970 1421434692 46.2582
0971 1421435913 44.4477
0972 1421437133 45.1936
0973 1421438354 44.6456
0974 1421439575 45.6001
0975 1421440795 44.9325
0976 1421442016 45.3452
0977 1421443237 44.7994
0978 1421444458 44.6320
0979 1421445678 44.3806
0980 1421446899 44.7929
0981 1421448120 44.8936
0982 1421449340 44.9928
0983 1421450561 45.6369
0984 1421451782 45.0002
0985 1421453002 44.8370
0986 1421454223 45.4812
0987 1421455444 45.2754
0988 1421456665 45.5034
0989 1421457885 45.2023
0990 1421459106 45.3726
0991 1421460327 45.5081
0992 1421461547 45.9468
0993 1421462768 45.7303
0994 1421463989 45.0028
0995 1421465209 46.1507
0996 1421466430 45.6730
0997 1421467651 46.1368
0998 1421468872 45.7827
0999 1421470092 46.1124
1000 1421471313 46.0898
1001 1421472534 46.2161
1002 1421473754 45.6232
1003 1421474975 46.4296
1004 1421476196 45.9726
1005 1421477416 45.9226
1006 1421478637 46.0226
1007 1421479858 45.9141
1008 1421481079 46.1149
1009 1421482299 46.6382
1010 1421483520 46.3945
1011 1421484741 46.9489
1012 1421485961 46.4840
1013 1421487182 47.0216
1014 1421488403 47.5094
1015 1421489624 46.7263
1016 1421490844 47.5521
1017 1421492065 47.6096
1018 1421493286 47.7755
1019 1421494506 48.5034
1020 1421495727 48.4410
1021 1421496948 49.5182
1022 1421498168 51.1352
1023 1421499389 51.0984
1024 1421500610 47.0540
1025 1421501831 51.2677
1026 1421503051 51.5057
1027 1421504272 49.6912
1028 1421505493 48.3525
1029 1421506713 48.1765
1030 1421507934 48.1598
1031 1421509155 46.9097
1032 1421510375 46.1167
1033 1421511596 46.5337
1034 1421512817 46.6369
1035 1421514038 46.5519
1036 1421515258 46.2188
1037 1421516479 46.4093
1038 1421517700 46.1123
1039 1421518920 46.1078
1040 1421520141 46.5915
1041 1421521362 45.9594
1042 1421522583 46.0204
1043 1421523803 45.8662
1044 1421525024 45.8408
1045 1421526245 46.1046
1046 1421527465 46.0331
1047 1421528686 46.3589
1048 1421529907 46.1110
1049 1421531127 45.6500
1050 1421532348 45.7568
1051 1421533569 45.5955
1052 1421534790 45.7353
1053 1421536010 46.0900
1054 1421537231 46.5122
1055 1421538452 45.5467
1056 1421539672 45.6045
1057 1421540893 46.3755
1058 1421542114 45.7419
1059 1421543334 45.3760
1060 1421544555 45.4011
1061 1421545776 46.4675
1062 1421546997 46.1510
1063 1421548217 45.7719
1064 1421549438 45.2954
1065 1421550659 46.0229
1066 1421551879 45.4993
1067 1421553100 45.3956
1068 1421554321 45.4151
1069 1421555541 45.8140
1070 1421556762 45.0361
1071 1421557983 45.8037
1072 1421559204 45.8199
1073 1421560424 45.0660
1074 1421561645 44.7279
1075 1421562866 45.0803
1076 1421564086 45.0348
1077 1421565307 45.3424
1078 1421566528 45.3546
1079 1421567749 45.4121
1080 1421568969 45.0355
1081 1421570190 45.2859
1082 1421571411 44.9791
1083 1421572631 44.8824
1084 1421573852 45.2227
1085 1421575073 45.1549
1086 1421576293 45.3951
1087 1421577514 45.8373
1088 1421578735 44.9618
1089 1421579956 45.6234
1090 1421581176 44.6085
1091 1421582397 44.7397
1092 1421583618 45.2279
1093 1421584838 44.4768
1094 1421586059 44.9497
1095 1421587280 44.7453
1096 1421588500 44.7846
1097 1421589721 44.4575
1098 1421590942 44.9532
1099 1421592163 44.7158
1100 1421593383 44.8261
1101 1421594604 44.3204
1102 1421595825 44.8801
1103 1421597045 44.0840
1104 1421598266 44.7970
1105 1421599487 44.1941
1106 1421600708 44.6162
1107 1421601928 44.9402
1108 1421603149 44.4536
1109 1421604370 44.9238
1110 1421605590 45.0327
1111 1421606811 45.0783
1112 1421608032 44.5110
1113 1421609252 44.0896
1114 1421610473 44.1949
1115 1421611694 44.3328
1116 1421612915 44.1234
1117 1421614135 44.3591
1118 1421615356 43.5595
1119 1421616577 43.6023
1120 1421617797 44.1764
1121 1421619018 44.4695
1122 1421620239 43.5142
1123 1421621459 44.4875
1124 1421622680 45.4856
1125 1421623901 44.2906
1126 1421625122 44.3052
1127 1421626342 44.0438
1128 1421627563 44.7224
1129 1421628784 44.1510
1130 1421630004 43.6741
1131 1421631225 43.8215
1132 1421632446 43.7799
1133 1421633666 44.5665
1134 1421634887 44.2534
1135 1421636108 44.0824
1136 1421637329 43.9468
1137 1421638549 43.8647
1138 1421639770 43.2659
1139 1421640991 43.5383
1140 1421642211 43.5246
1141 1421643432 43.3214
1142 1421644653 42.5256
1143 1421645874 42.8852
1144 1421647094 43.8034
1145 1421648315 43.1741
1146 1421649536 43.6648
1147 1421650756 44.1258
1148 1421651977 43.4133
1149 1421653198 43.5576
1150 1421654418 43.8716
1151 1421655639 43.3390
1152 1421656860 43.4474
1153 1421658081 43.5132
1154 1421659301 43.3483
1155 1421660522 42.6147
1156 1421661743 43.3499
1157 1421662963 42.6775
1158 1421664184 43.0526
1159 1421665405 42.9073
1160 1421666625 43.2271
1161 1421667846 43.0369
1162 1421669067 43.3294
1163 1421670288 42.8205
1164 1421671508 42.9586
1165 1421672729 42.3572
1166 1421673950 42.5352
1167 1421675170 42.9918
1168 1421676391 42.8868
1169 1421677612 42.9753
1170 1421678833 43.0084
1171 1421680053 42.8287
1172 1421681274 42.5872
1173 1421682495 42.5570
1174 1421683715 42.3351
1175 1421684936 42.6725
1176 1421686157 42.2915
1177 1421687377 42.2106
1178 1421688598 42.2403
1179 1421689819 42.7277
1180 1421691040 42.3027
1181 1421692260 42.7302
1182 1421693481 42.2497
1183 1421694702 42.4718
1184 1421695922 42.5709
1185 1421697143 42.3145
1186 1421698364 42.2286
1187 1421699584 41.3519
1188 1421700805 42.3787
1189 1421702026 42.3227
1190 1421703247 42.0568
1191 1421704467 41.8539
1192 1421705688 41.7802
1193 1421706909 42.0383
1194 1421708129 41.9119
1195 1421709350 41.8980
1196 1421710571 42.0037
1197 1421711791 42.1524
1198 1421713012 42.0940
1199 1421714233 42.0965
1200 1421715454 41.3470
1201 1421716674 41.7123
1202 1421717895 42.2365
1203 1421719116 41.8162
1204 1421720336 41.7736
1205 1421721557 41.4790
1206 1421722778 41.6798
1207 1421723999 41.6359
1208 1421725219 41.6019
1209 1421726440 41.4924
1210 1421727661 41.2397
1211 1421728881 41.3471
1212 1421730102 41.5359
1213 1421731323 41.7263
1214 1421732543 41.3478
1215 1421733764 41.3099
1216 1421734985 41.4688
1217 1421736206 41.6052
1218 1421737426 41.5884
1219 1421738647 41.2579
1220 1421739868 41.6135
1221 1421741088 41.2925
1222 1421742309 41.5978
1223 1421743530 40.9423
1224 1421744750 41.3486
1225 1421745971 40.9577
1226 1421747192 41.1292
1227 1421748413 40.7605
1228 1421749633 40.5697
1229 1421750854 41.0165
1230 1421752075 41.6166
1231 1421753295 41.1118
1232 1421754516 40.9879
1233 1421755737 41.0984
1234 1421756958 40.6658
1235 1421758178 40.6202
1236 1421759399 40.5167
1237 1421760620 40.8251
1238 1421761840 40.4664
1239 1421763061 40.6772
1240 1421764282 40.9681
1241 1421765502 40.6591
1242 1421766723 39.8623
1243 1421767944 40.3856
1244 1421769165 40.4001
1245 1421770385 40.4729
1246 1421771606 39.8062
1247 1421772827 40.1235
1248 1421774047 40.0607
1249 1421775268 39.4360
1250 1421776489 39.4443
1251 1421777709 40.3848
1252 1421778930 40.2933
1253 1421780151 39.7022
1254 1421781372 40.3235
1255 1421782592 40.3599
1256 1421783813 39.7939
1257 1421785034 40.4587
1258 1421786254 40.5704
1259 1421787475 39.9216
1260 1421788696 39.3208
1261 1421789916 39.6257
1262 1421791137 40.1262
1263 1421792358 39.9130
1264 1421793579 39.4500
1265 1421794799 40.0562
1266 1421796020 39.9074
1267 1421797241 39.7587
1268 1421798461 39.5676
1269 1421799682 39.4151
1270 1421800903 39.4151
1271 1421802124 39.2285
1272 1421803344 40.3361
1273 1421804565 43.8797
1274 1421805786 40.8618
1275 1421807006 39.2775
1276 1421808227 39.6466
1277 1421809448 39.5056
1278 1421810668 39.8049
1279 1421811889 39.8771
1280 1421813110 39.1301
1281 1421814331 39.4765
1282 1421815551 39.7103
1283 1421816772 39.6103
1284 1421817993 39.2026
1285 1421819213 39.3494
1286 1421820434 39.4700
1287 1421821655 38.7870
1288 1421822875 39.1710
1289 1421824096 39.4878
1290 1421825317 39.7070
1291 1421826538 39.4598
1292 1421827758 39.2549
1293 1421828979 39.1335
1294 1421830200 39.2041
1295 1421831420 39.3599
1296 1421832641 38.8830
1297 1421833862 38.8202
1298 1421835083 39.1427
1299 1421836303 38.6249
1300 1421837524 38.7672
1301 1421838745 38.6157
1302 1421839965 38.8876
1303 1421841186 38.9197
1304 1421842407 38.6742
1305 1421843627 38.6678
1306 1421844848 38.7766
1307 1421846069 38.6590
1308 1421847290 38.8187
1309 1421848510 38.5117
1310 1421849731 38.7578
1311 1421850952 38.4462
1312 1421852172 38.8060
1313 1421853393 38.9039
1314 1421854614 38.5947
1315 1421855834 38.7953
1316 1421857055 38.9640
1317 1421858276 39.0500
1318 1421859497 39.1264
1319 1421860717 39.7014
1320 1421861938 40.2650
1321 1421863159 39.9731
1322 1421864379 39.6728
1323 1421865600 38.6877
1324 1421866821 38.1563
1325 1421868041 38.3036
1326 1421869262 38.4828
1327 1421870483 38.6057
1328 1421871704 38.1915
1329 1421872924 38.3412
1330 1421874145 38.0099
1331 1421875366 37.7966
1332 1421876586 37.8620
1333 1421877807 38.1489
1334 1421879028 38.1431
1335 1421880249 37.9205
1336 1421881469 37.9059
1337 1421882690 38.3639
1338 1421883911 37.6191
1339 1421885131 38.1081
1340 1421886352 38.5504
1341 1421887573 37.4658
1342 1421888793 37.4277
1343 1421890014 38.1549
1344 1421891235 38.3873
1345 1421892456 38.1740
1346 1421893676 37.8673
1347 1421894897 38.1500
1348 1421896118 37.7804
1349 1421897338 38.3359
1350 1421898559 37.5402
1351 1421899780 37.5172
1352 1421901000 37.6753
1353 1421902221 37.6809
1354 1421903442 37.3150
1355 1421904663 37.7149
1356 1421905883 38.1752
1357 1421907104 37.7827
1358 1421908325 38.1490
1359 1421909545 37.8118
1360 1421910766 37.8070
1361 1421911987 37.5522
1362 1421913208 37.5697
1363 1421914428 37.7673
1364 1421915649 37.6422
1365 1421916870 37.7358
1366 1421918090 37.7479
1367 1421919311 36.8974
1368 1421920532 37.6317
1369 1421921752 37.5528
1370 1421922973 37.5227
1371 1421924194 37.6007
1372 1421925415 37.2364
1373 1421926635 37.1547
1374 1421927856 37.7335
1375 1421929077 37.9867
1376 1421930297 37.6622
1377 1421931518 37.5757
1378 1421932739 36.8382
1379 1421933959 37.8355
1380 1421935180 38.4091
1381 1421936401 37.7039
1382 1421937622 37.6673
1383 1421938842 38.0916
1384 1421940063 37.8375
1385 1421941284 37.5742
1386 1421942504 37.6674
1387 1421943725 38.0053
1388 1421944946 37.7985
1389 1421946166 37.8976
1390 1421947387 37.9712
1391 1421948608 37.7248
1392 1421949829 37.4146
1393 1421951049 37.8394
1394 1421952270 37.5279
1395 1421953491 37.5318
1396 1421954711 37.5983
1397 1421955932 37.9059
1398 1421957153 37.2181
1399 1421958374 37.8340
1400 1421959594 37.2760
1401 1421960815 37.4651
1402 1421962036 37.6659
1403 1421963256 37.5965
1404 1421964477 37.0772
1405 1421965698 37.6380
1406 1421966918 37.5932
1407 1421968139 38.2657
1408 1421969360 37.8730
1409 1421970581 37.6720
1410 1421971801 37.5685
1411 1421973022 37.9435
1412 1421974243 37.9399
1413 1421975463 37.5969
1414 1421976684 37.9701
1415 1421977905 38.4808
1416 1421979125 38.8761
1417 1421980346 38.0995
1418 1421981567 37.9135
1419 1421982788 37.5106
1420 1421984008 37.3429
1421 1421985229 37.0364
1422 1421986450 37.6990
1423 1421987670 37.4928
1424 1421988891 37.5907
1425 1421990112 37.3740
1426 1421991333 37.6648
1427 1421992553 37.8306
1428 1421993774 37.8634
1429 1421994995 37.8000
1430 1421996215 37.7055
1431 1421997436 38.1829
1432 1421998657 38.5776
1433 1421999877 43.3548
1434 1422001098 219.5234
1435 1422002319 184.7020
1436 1422003540 40.1196
1437 1422004760 38.0427
1438 1422005981 38.2790
1439 1422007202 37.9291
1440 1422008422 37.5072
1441 1422009643 37.3996
1442 1422010864 38.2032
1443 1422012084 38.0503
1444 1422013305 37.7230
1445 1422014526 38.0051
1446 1422015747 37.7091
1447 1422016967 37.0689
1448 1422018188 38.3313
1449 1422019409 38.1005
1450 1422020629 38.1088
1451 1422021850 37.7872
1452 1422023071 37.3042
1453 1422024291 37.7652
1454 1422025512 38.1881
1455 1422026733 37.9810
1456 1422027954 37.8889
1457 1422029174 37.6838
1458 1422030395 38.0843
1459 1422031616 37.6822
1460 1422032836 37.5525
1461 1422034057 37.7192
1462 1422035278 37.6977
1463 1422036499 37.4669
1464 1422037719 37.7080
1465 1422038940 37.5346
1466 1422040161 38.2378
1467 1422041381 38.5268
1468 1422042602 37.8827
1469 1422043823 37.4870
1470 1422045043 38.2505
1471 1422046264 37.7602
1472 1422047485 37.9604
1473 1422048706 38.4274
1474 1422049926 37.7776
1475 1422051147 37.9483
1476 1422052368 37.8469
1477 1422053588 37.9184
1478 1422054809 37.3852
1479 1422056030 37.9449
1480 1422057250 37.8055
1481 1422058471 37.9840
1482 1422059692 38.0059
1483 1422060913 37.5618
1484 1422062133 38.2573
1485 1422063354 37.5235
1486 1422064575 37.6968
1487 1422065795 37.8812
1488 1422067016 38.1394
1489 1422068237 37.6824
1490 1422069458 38.3715
1491 1422070678 38.2354
1492 1422071899 38.1342
1493 1422073120 38.3627
1494 1422074340 38.0694
1495 1422075561 37.9356
1496 1422076782 38.1217
1497 1422078002 38.2203
1498 1422079223 37.8694
1499 1422080444 37.5123
1500 1422081665 38.0648
1501 1422082885 38.0710
1502 1422084106 38.3702
1503 1422085327 37.7313
1504 1422086547 38.0214
1505 1422087768 38.6681
1506 1422088989 37.6671
1507 1422090209 38.1987
1508 1422091430 38.1331
1509 1422092651 38.0278
1510 1422093872 38.0522
1511 1422095092 38.3580
1512 1422096313 38.1527
1513 1422097534 38.4595
1514 1422098754 38.2436
1515 1422099975 38.3772
1516 1422101196 38.2564
1517 1422102416 37.6797
1518 1422103637 38.6815
1519 1422104858 37.7579
1520 1422106079 37.8688
1521 1422107299 37.7239
1522 1422108520 38.1040
1523 1422109741 38.1620
1524 1422110961 37.9811
1525 1422112182 38.2336
1526 1422113403 38.5064
1527 1422114624 39.1927
1528 1422115844 38.7277
1529 1422117065 38.2465
1530 1422118286 38.5419
1531 1422119506 38.2932
1532 1422120727 38.0965
1533 1422121948 38.3672
1534 1422123168 38.5296
1535 1422124389 37.5236
1536 1422125610 37.7915
1537 1422126831 38.4740
1538 1422128051 38.3407
1539 1422129272 38.2794
1540 1422130493 38.4982
1541 1422131713 38.1734
1542 1422132934 38.4020
1543 1422134155 38.2692
1544 1422135375 38.4861
1545 1422136596 38.5271
1546 1422137817 38.5177
1547 1422139038 38.2187
1548 1422140258 38.1702
1549 1422141479 38.6659
1550 1422142700 38.3124
1551 1422143920 38.2971
1552 1422145141 38.2949
1553 1422146362 38.6969
1554 1422147583 38.7730
1555 1422148803 39.1544
1556 1422150024 38.7472
1557 1422151245 38.7587
1558 1422152465 37.9839
1559 1422153686 38.8852
1560 1422154907 38.3079
1561 1422156127 38.0030
1562 1422157348 38.7350
1563 1422158569 38.2717
1564 1422159790 38.5924
1565 1422161010 38.5377
1566 1422162231 38.3136
1567 1422163452 38.3356
1568 1422164672 39.0938
1569 1422165893 38.1160
1570 1422167114 38.7427
1571 1422168334 38.5446
1572 1422169555 38.7503
1573 1422170776 38.7542
1574 1422171997 38.5074
1575 1422173217 38.6595
1576 1422174438 38.4918
1577 1422175659 38.5182
1578 1422176879 39.0859
1579 1422178100 38.6224
1580 1422179321 38.1787
1581 1422180541 38.3460
1582 1422181762 38.8114
1583 1422182983 38.9383
1584 1422184204 39.4329
1585 1422185424 38.4515
1586 1422186645 38.7073
1587 1422187866 38.6193
1588 1422189086 39.3072
1589 1422190307 38.4215
1590 1422191528 39.2099
1591 1422192749 38.5680
1592 1422193969 38.6299
1593 1422195190 38.6043
1594 1422196411 38.8414
1595 1422197631 39.9760
1596 1422198852 44.3858
1597 1422200073 40.3245
1598 1422201293 39.0103
1599 1422202514 39.4004
1600 1422203735 39.8548
1601 1422204956 39.0336
1602 1422206176 38.6400
1603 1422207397 38.3751
1604 1422208618 38.7971
1605 1422209838 38.6963
1606 1422211059 38.3529
1607 1422212280 38.7102
1608 1422213500 38.3137
1609 1422214721 38.5602
1610 1422215942 38.0955
1611 1422217163 38.0475
1612 1422218383 38.5877
1613 1422219604 38.6158
1614 1422220825 38.3954
1615 1422222045 38.2874
1616 1422223266 38.4476
1617 1422224487 38.3347
1618 1422225708 38.3380
1619 1422226928 38.4864
1620 1422228149 38.0650
1621 1422229370 38.2072
1622 1422230590 38.6496
1623 1422231811 38.2085
1624 1422233032 38.7181
1625 1422234252 38.7917
1626 1422235473 38.1220
1627 1422236694 38.3730
1628 1422237915 38.4713
1629 1422239135 38.2886
1630 1422240356 38.6004
1631 1422241577 38.3240
1632 1422242797 37.9204
1633 1422244018 38.4489
1634 1422245239 37.9465
1635 1422246459 38.6284
1636 1422247680 38.3941
1637 1422248901 38.4769
1638 1422250122 37.8985
1639 1422251342 38.6728
1640 1422252563 37.7763
1641 1422253784 37.6370
1642 1422255004 38.2137
1643 1422256225 38.0721
1644 1422257446 37.8513
1645 1422258666 37.9673
1646 1422259887 38.3450
1647 1422261108 38.4277
1648 1422262329 37.9520
1649 1422263549 38.0326
1650 1422264770 37.4266
1651 1422265991 38.0173
1652 1422267211 37.6642
1653 1422268432 37.2539
1654 1422269653 37.2313
1655 1422270874 37.3034
1656 1422272094 37.1875
1657 1422273315 37.5824
1658 1422274536 37.6839
1659 1422275756 37.6274
1660 1422276977 37.7799
1661 1422278198 37.6178
1662 1422279418 37.4131
1663 1422280639 37.5198
1664 1422281860 38.0802
1665 1422283081 37.5897
1666 1422284301 37.6868
1667 1422285522 37.0775
1668 1422286743 36.8112
1669 1422287963 36.3348
1670 1422289184 36.9030
1671 1422290405 36.7761
1672 1422291625 37.2776
1673 1422292846 37.3310
1674 1422294067 37.6368
1675 1422295288 36.9465
1676 1422296508 37.2612
1677 1422297729 37.2666
1678 1422298950 36.9946
1679 1422300170 36.8609
1680 1422301391 37.0027
1681 1422302612 36.4361
1682 1422303833 36.6893
1683 1422305053 36.4411
1684 1422306274 36.9706
1685 1422307495 37.2426
1686 1422308715 36.1040
1687 1422309936 36.4517
1688 1422311157 36.5073
1689 1422312377 35.8927
1690 1422313598 35.8409
1691 1422314819 37.1158
1692 1422316040 36.3178
1693 1422317260 36.5102
1694 1422318481 37.0839
1695 1422319702 36.6886
1696 1422320922 36.4901
1697 1422322143 35.8717
1698 1422323364 35.6825
1699 1422324584 36.0698
1700 1422325805 36.0118
1701 1422327026 35.6474
1702 1422328247 35.7817
1703 1422329467 35.2823
1704 1422330688 36.0926
1705 1422331909 35.3248
1706 1422333129 35.7849
1707 1422334350 35.5826
1708 1422335571 35.2871
1709 1422336791 35.2346
1710 1422338012 35.0485
1711 1422339233 35.6609
1712 1422340454 34.6330
1713 1422341674 35.1916
1714 1422342895 35.1356
1715 1422344116 34.7064
1716 1422345336 34.6794
1717 1422346557 35.1838
1718 1422347778 34.9337
1719 1422348999 34.4074
1720 1422350219 34.1174
1721 1422351440 34.0790
1722 1422352661 34.4408
1723 1422353881 34.8372
1724 1422355102 34.4426
1725 1422356323 34.1187
1726 1422357543 34.3258
1727 1422358764 34.3590
1728 1422359985 34.6095
1729 1422361206 34.2788
1730 1422362426 34.2807
1731 1422363647 34.5129
1732 1422364868 34.3250
1733 1422366088 33.8299
1734 1422367309 33.9849
1735 1422368530 33.8664
1736 1422369750 33.9119
1737 1422370971 33.5532
1738 1422372192 33.4767
1739 1422373413 33.1955
1740 1422374633 33.0463
1741 1422375854 33.2570
1742 1422377075 32.6159
1743 1422378295 32.7068
1744 1422379516 33.0393
1745 1422380737 32.9098
1746 1422381958 33.0445
1747 1422383178 32.5253
1748 1422384399 32.5273
1749 1422385620 32.9017
1750 1422386840 32.3572
1751 1422388061 32.1999
1752 1422389282 32.0411
1753 1422390502 32.5596
1754 1422391723 32.4453
1755 1422392944 32.4303
1756 1422394165 32.1999
1757 1422395385 32.1145
1758 1422396606 32.2987
1759 1422397827 32.0169
1760 1422399047 31.7718
1761 1422400268 31.5776
1762 1422401489 31.8770
1763 1422402709 31.9282
1764 1422403930 31.4212
1765 1422405151 31.6146
1766 1422406372 31.2481
1767 1422407592 30.4775
1768 1422408813 31.3229
1769 1422410034 31.2379
1770 1422411254 31.0705
1771 1422412475 30.4869
1772 1422413696 30.7028
1773 1422414916 30.2215
1774 1422416137 29.9147
1775 1422417358 30.5061
1776 1422418579 30.5430
1777 1422419799 30.5117
1778 1422421020 30.4198
1779 1422422241 30.1769
1780 1422423461 29.8422
1781 1422424682 29.6309
1782 1422425903 29.9046
1783 1422427124 29.6461
1784 1422428344 29.5419
1785 1422429565 29.4715
1786 1422430786 29.5701
1787 1422432006 28.9846
1788 1422433227 29.3885
1789 1422434448 28.9653
1790 1422435668 28.6323
1791 1422436889 29.0076
1792 1422438110 29.0153
1793 1422439331 28.6438
1794 1422440551 28.4944
1795 1422441772 28.4163
1796 1422442993 28.0390
1797 1422444213 28.4892
1798 1422445434 27.9345
1799 1422446655 28.2285
1800 1422447875 27.8174
1801 1422449096 27.5792
1802 1422450317 27.5262
1803 1422451538 27.4117
1804 1422452758 27.7671
1805 1422453979 27.5657
1806 1422455200 27.4371
1807 1422456420 27.5141
1808 1422457641 26.9939
1809 1422458862 26.9337
1810 1422460083 27.2078
1811 1422461303 27.1198
1812 1422462524 26.5808
1813 1422463745 26.7152
1814 1422464965 26.7746
1815 1422466186 26.2298
1816 1422467407 26.7756
1817 1422468627 26.1064
1818 1422469848 26.2621
1819 1422471069 25.9196
1820 1422472290 25.9670
1821 1422473510 25.9266
1822 1422474731 25.8494
1823 1422475952 25.7950
1824 1422477172 25.4122
1825 1422478393 25.1217
1826 1422479614 25.2167
1827 1422480834 24.9682
1828 1422482055 25.0418
1829 1422483276 25.0583
1830 1422484497 24.9345
1831 1422485717 24.9025
1832 1422486938 24.7650
1833 1422488159 24.6880
1834 1422489379 24.7474
1835 1422490600 24.2317
1836 1422491821 23.9817
1837 1422493041 24.1379
1838 1422494262 24.0390
1839 1422495483 23.8481
1840 1422496704 23.9562
1841 1422497924 23.7003
1842 1422499145 23.4317
1843 1422500366 23.4765
1844 1422501586 23.7141
1845 1422502807 23.4667
1846 1422504028 23.2728
1847 1422505249 22.8493
1848 1422506469 22.6950
1849 1422507690 22.6735
1850 1422508911 22.7108
1851 1422510131 22.7770
1852 1422511352 22.4531
1853 1422512573 22.1978
1854 1422513793 22.0761
1855 1422515014 22.2044
1856 1422516235 21.9492
1857 1422517456 21.5617
1858 1422518676 21.4734
1859 1422519897 21.6314
1860 1422521118 21.3067
1861 1422522338 21.1851
1862 1422523559 21.1399
1863 1422524780 21.0723
1864 1422526000 20.9853
1865 1422527221 20.8668
1866 1422528442 20.7100
1867 1422529663 20.6354
1868 1422530883 20.4836
1869 1422532104 20.5422
1870 1422533325 20.2945
1871 1422534545 20.3005
1872 1422535766 20.2004
1873 1422536987 19.9776
1874 1422538208 20.0533
1875 1422539428 19.8296
1876 1422540649 19.8254
1877 1422541870 19.5938
1878 1422543090 19.6568
1879 1422544311 19.3602
1880 1422545532 19.2532
1881 1422546752 18.8523
1882 1422547973 18.9456
1883 1422549194 19.2529
1884 1422550415 18.9757
1885 1422551635 18.8539
1886 1422552856 18.6916
1887 1422554077 18.3485
1888 1422555297 18.2144
1889 1422556518 18.4695
1890 1422557739 18.3395
1891 1422558959 18.0257
1892 1422560180 17.6770
1893 1422561401 17.7431
1894 1422562622 17.7009
1895 1422563842 17.5219
1896 1422565063 17.6237
1897 1422566284 17.5181
1898 1422567504 17.3169
1899 1422568725 17.4443
1900 1422569946 17.0692
1901 1422571166 16.8413
1902 1422572387 17.0217
1903 1422573608 16.8362
1904 1422574829 16.7481
1905 1422576049 16.6745
1906 1422577270 16.5383
1907 1422578491 16.3285
1908 1422579711 16.2911
1909 1422580932 15.9375
1910 1422582153 16.2360
1911 1422583374 16.0853
1912 1422584594 15.8201
1913 1422585815 15.8624
1914 1422587036 15.4824
1915 1422588256 15.5757
1916 1422589477 15.3905
1917 1422590698 15.1595
1918 1422591918 15.1480
1919 1422593139 15.3730
1920 1422594360 15.2227
1921 1422595581 15.1572
1922 1422596801 14.9585
1923 1422598022 14.8882
1924 1422599243 14.8347
1925 1422600463 14.6400
1926 1422601684 14.4538
1927 1422602905 14.3504
1928 1422604125 14.2954
1929 1422605346 14.0945
1930 1422606567 14.1959
1931 1422607788 14.1425
1932 1422609008 13.9609
1933 1422610229 13.7863
1934 1422611450 13.5601
1935 1422612670 13.6902
1936 1422613891 13.4067
1937 1422615112 13.3939
1938 1422616333 13.4127
1939 1422617553 13.3752
1940 1422618774 13.4123
1941 1422619995 13.1475
1942 1422621215 13.1077
1943 1422622436 12.8532
1944 1422623657 12.7995
1945 1422624877 12.6809
1946 1422626098 12.7379
1947 1422627319 12.6982
1948 1422628540 12.4486
1949 1422629760 12.4098
1950 1422630981 12.4047
1951 1422632202 12.3623
1952 1422633422 12.0037
1953 1422634643 12.2013
1954 1422635864 12.0958
1955 1422637084 12.0518
1956 1422638305 11.6982
1957 1422639526 11.7376
1958 1422640747 11.6388
1959 1422641967 11.7296
1960 1422643188 11.6101
1961 1422644409 11.6036
1962 1422645629 11.5290
1963 1422646850 11.3537
1964 1422648071 11.2285
1965 1422649291 11.0289
1966 1422650512 11.2008
1967 1422651733 11.2004
1968 1422652954 11.0578
1969 1422654174 10.9076
1970 1422655395 10.8144
1971 1422656616 10.7604
1972 1422657836 10.6197
1973 1422659057 10.7004
1974 1422660278 10.5756
1975 1422661499 10.4115
1976 1422662719 10.4351
1977 1422663940 10.4350
1978 1422665161 10.2400
1979 1422666381 10.2213
1980 1422667602 10.2233
1981 1422668823 10.0787
1982 1422670043 10.0076
1983 1422671264 10.1116
1984 1422672485 9.9504
1985 1422673706 9.8584
1986 1422674926 9.9091
1987 1422676147 9.7998
1988 1422677368 9.7619
1989 1422678588 9.7833
1990 1422679809 9.6116
1991 1422681030 9.6279
1992 1422682250 9.4695
1993 1422683471 9.4371
1994 1422684692 9.4213
1995 1422685913 9.5285
1996 1422687133 9.3771
1997 1422688354 9.3142
1998 1422689575 9.1105
1999 1422690795 9.2834
2000 1422692016 9.0596
2001 1422693237 9.1151
2002 1422694458 8.8772
2003 1422695678 8.9470
2004 1422696899 8.9679
2005 1422698120 8.8694
2006 1422699340 8.8532
2007 1422700561 9.1562
2008 1422701782 8.9251
2009 1422703002 8.7812
2010 1422704223 8.7970
2011 1422705444 8.7594
2012 1422706665 8.6656
2013 1422707885 8.6412
2014 1422709106 8.5326
2015 1422710327 8.5267
2016 1422711547 8.5280
2017 1422712768 8.6067
2018 1422713989 8.4439
2019 1422715209 8.4345
2020 1422716430 8.3764
2021 1422717651 8.4186
2022 1422718872 8.3332
2023 1422720092 8.3195
2024 1422721313 8.2774
2025 1422722534 8.2541
2026 1422723754 8.2114
2027 1422724975 8.2074
2028 1422726196 8.1335
2029 1422727416 8.0221
2030 1422728637 8.0281
2031 1422729858 8.0856
2032 1422731079 7.9475
2033 1422732299 7.9674
2034 1422733520 8.0573
2035 1422734741 8.0949
2036 1422735961 8.1552
2037 1422737182 8.1306
2038 1422738403 8.1154
2039 1422739624 8.1246
2040 1422740844 8.0472
2041 1422742065 8.0401
2042 1422743286 8.0683
2043 1422744506 8.0404
2044 1422745727 8.0626
2045 1422746948 7.9171
2046 1422748168 8.0490
2047 1422749389 8.2986
