# File: 20-06-07T195220.ast
# NOTEA     = None Attached.  RTLSDR Dongle Test
# NOTEB     = Spectral Integration
# OBSERVER  = Science Aficionado
# DEVICE    = rtl=0,bias=1
# DATADIR   = ../data/
# SITE      = None Attached.  RTLSDR Dongle Test
# CITY      = Seattle
# REGION    = Washington
# COUNTRY   = US
# TELTYPE   = UW CSE 490W Dish
# FRAME     = TOPO
# GAIN1     = 49.0
# GAIN2     = 11.0
# GAIN3     = 11.0
# GAIN4     = 0.0
# Count     = 2500
# CenterFreq= 1421500000.0
# Bandwidth = 2500000.0
# Duration  = 41.945451
# DeltaX    = 5859.375
# TSYS      = 200.0
# TRX       = 100.0
# TRMS      = 2.0
# TINT      = 1.0
# KPERC     = 100.0
# GAINFACT  = 1.0
# BUNIT     = Counts
# NCHAN     = 2048
# NSPEC     = 1
# NTIME     = 0
# NSAMPLES  = 0
# EPEAK     = 4.10875183718
# ERMS      = 0.995973393526
# EMJD      = 58568.808999981004 
# REFCHAN   = 1024.0
# REFSAMPL  = 256.0
# NAVE      = 50
# NMEDIAN   = 1024
# Fft_rate  = 5000
# UTC       = 2020-06-07 19:52:20.834761
# SECONDS   =       0.0000000000 
# LST       = 09:08:15.960
# AZ        = 180.0
# EL        = 90.0
# TELLON    = -57:41:09.900
# TELLAT    = +47:39:13.800
# RA        = 09:05:31.580
# DEC       = +47:48:53.700
# GALLON    = 171:43:00.70
# GALLAT    = +41:54:27.80
# ALT_SUN   = +36:16:13.5
# AZ_SUN    = +264:51:14.6
# ETAA      = 0.8
# ETAB      = 0.99
# POLANGLE  = 0.0
# TELSIZEAM = 1.0
# TELSIZEBM = 1.0
# AST_VERS  = 05.01
0000 1420250610 8.1334
0001 1420251831 7.9632
0002 1420253051 8.1498
0003 1420254272 8.0874
0004 1420255493 7.9494
0005 1420256713 8.0742
0006 1420257934 8.0630
0007 1420259155 8.0337
0008 1420260375 8.0507
0009 1420261596 7.9106
0010 1420262817 8.2132
0011 1420264038 8.1442
0012 1420265258 8.1671
0013 1420266479 8.0179
0014 1420267700 8.0164
0015 1420268920 8.0923
0016 1420270141 8.0551
0017 1420271362 8.2182
0018 1420272583 8.2505
0019 1420273803 8.2510
0020 1420275024 8.2533
0021 1420276245 8.1791
0022 1420277465 8.2449
0023 1420278686 8.3386
0024 1420279907 8.2770
0025 1420281127 8.2854
0026 1420282348 8.4307
0027 1420283569 8.4314
0028 1420284790 8.4473
0029 1420286010 8.4858
0030 1420287231 8.4747
0031 1420288452 8.6683
0032 1420289672 8.6342
0033 1420290893 8.5877
0034 1420292114 8.6533
0035 1420293334 8.6154
0036 1420294555 8.6829
0037 1420295776 8.8553
0038 1420296997 8.7718
0039 1420298217 8.8561
0040 1420299438 9.0251
0041 1420300659 9.2647
0042 1420301879 9.0337
0043 1420303100 9.1194
0044 1420304321 9.1413
0045 1420305541 9.1002
0046 1420306762 9.0845
0047 1420307983 9.0894
0048 1420309204 9.1898
0049 1420310424 9.2642
0050 1420311645 9.3328
0051 1420312866 9.3860
0052 1420314086 9.4057
0053 1420315307 9.3923
0054 1420316528 9.6055
0055 1420317749 9.5981
0056 1420318969 9.5972
0057 1420320190 9.7822
0058 1420321411 9.8074
0059 1420322631 10.0582
0060 1420323852 9.9976
0061 1420325073 9.9679
0062 1420326293 10.0126
0063 1420327514 10.1465
0064 1420328735 10.0600
0065 1420329956 10.3067
0066 1420331176 10.2866
0067 1420332397 10.3197
0068 1420333618 10.2726
0069 1420334838 10.2409
0070 1420336059 10.4025
0071 1420337280 10.4304
0072 1420338500 10.4657
0073 1420339721 10.5169
0074 1420340942 10.5907
0075 1420342163 10.6854
0076 1420343383 10.7263
0077 1420344604 10.8636
0078 1420345825 10.8589
0079 1420347045 10.9933
0080 1420348266 11.0050
0081 1420349487 10.9954
0082 1420350708 11.0251
0083 1420351928 11.1610
0084 1420353149 11.2374
0085 1420354370 11.2936
0086 1420355590 11.3819
0087 1420356811 11.5158
0088 1420358032 11.6295
0089 1420359252 11.3541
0090 1420360473 11.5046
0091 1420361694 11.6478
0092 1420362915 11.7874
0093 1420364135 11.8652
0094 1420365356 11.8593
0095 1420366577 12.0111
0096 1420367797 11.8915
0097 1420369018 12.0580
0098 1420370239 12.0354
0099 1420371459 12.2914
0100 1420372680 12.3455
0101 1420373901 12.3795
0102 1420375122 12.3477
0103 1420376342 12.6262
0104 1420377563 12.6313
0105 1420378784 12.6776
0106 1420380004 12.8799
0107 1420381225 12.7923
0108 1420382446 12.9171
0109 1420383666 12.8960
0110 1420384887 13.0755
0111 1420386108 13.3077
0112 1420387329 13.2977
0113 1420388549 13.3736
0114 1420389770 13.4059
0115 1420390991 13.5930
0116 1420392211 13.6136
0117 1420393432 13.8167
0118 1420394653 13.8579
0119 1420395874 13.9896
0120 1420397094 13.9526
0121 1420398315 14.0885
0122 1420399536 13.9881
0123 1420400756 14.0234
0124 1420401977 14.3455
0125 1420403198 14.4243
0126 1420404418 14.4044
0127 1420405639 14.6168
0128 1420406860 14.6319
0129 1420408081 14.7376
0130 1420409301 14.7605
0131 1420410522 14.8328
0132 1420411743 14.8223
0133 1420412963 15.1174
0134 1420414184 15.0342
0135 1420415405 15.3714
0136 1420416625 16.0196
0137 1420417846 15.5821
0138 1420419067 15.4222
0139 1420420288 15.6355
0140 1420421508 15.6133
0141 1420422729 15.8632
0142 1420423950 16.0373
0143 1420425170 15.8365
0144 1420426391 16.3066
0145 1420427612 15.9997
0146 1420428833 16.1603
0147 1420430053 16.3187
0148 1420431274 16.5411
0149 1420432495 16.4410
0150 1420433715 16.6961
0151 1420434936 16.7967
0152 1420436157 17.0339
0153 1420437377 16.7186
0154 1420438598 17.0583
0155 1420439819 17.1170
0156 1420441040 17.3087
0157 1420442260 17.3462
0158 1420443481 17.3829
0159 1420444702 17.7945
0160 1420445922 17.6806
0161 1420447143 17.7012
0162 1420448364 17.9134
0163 1420449584 18.0144
0164 1420450805 18.1870
0165 1420452026 18.1913
0166 1420453247 18.2206
0167 1420454467 18.3211
0168 1420455688 18.8583
0169 1420456909 18.9295
0170 1420458129 18.9336
0171 1420459350 19.3257
0172 1420460571 18.8862
0173 1420461791 18.8290
0174 1420463012 19.1862
0175 1420464233 19.0818
0176 1420465454 19.0419
0177 1420466674 19.3686
0178 1420467895 19.3043
0179 1420469116 19.7388
0180 1420470336 19.7481
0181 1420471557 19.6484
0182 1420472778 19.7525
0183 1420473999 20.1773
0184 1420475219 19.9004
0185 1420476440 20.0391
0186 1420477661 20.4017
0187 1420478881 20.6331
0188 1420480102 20.5163
0189 1420481323 20.7613
0190 1420482543 20.5264
0191 1420483764 20.9916
0192 1420484985 20.7962
0193 1420486206 21.0034
0194 1420487426 21.2625
0195 1420488647 21.1083
0196 1420489868 21.2626
0197 1420491088 21.6740
0198 1420492309 21.3402
0199 1420493530 21.5719
0200 1420494750 21.5872
0201 1420495971 22.0829
0202 1420497192 22.1558
0203 1420498413 22.7378
0204 1420499633 23.4963
0205 1420500854 22.2367
0206 1420502075 22.2340
0207 1420503295 22.3857
0208 1420504516 22.7086
0209 1420505737 22.4860
0210 1420506958 22.8335
0211 1420508178 23.0540
0212 1420509399 23.1356
0213 1420510620 22.9856
0214 1420511840 22.8101
0215 1420513061 23.2661
0216 1420514282 23.4012
0217 1420515502 23.3900
0218 1420516723 23.5287
0219 1420517944 23.5445
0220 1420519165 23.6881
0221 1420520385 23.9895
0222 1420521606 23.9510
0223 1420522827 23.7158
0224 1420524047 24.0927
0225 1420525268 24.7287
0226 1420526489 24.9182
0227 1420527709 24.8621
0228 1420528930 24.6977
0229 1420530151 24.6951
0230 1420531372 24.6512
0231 1420532592 24.9951
0232 1420533813 25.1219
0233 1420535034 25.1696
0234 1420536254 25.0132
0235 1420537475 25.3152
0236 1420538696 25.7022
0237 1420539916 25.4812
0238 1420541137 25.6421
0239 1420542358 25.8995
0240 1420543579 25.5262
0241 1420544799 25.8437
0242 1420546020 25.9669
0243 1420547241 26.1483
0244 1420548461 26.1170
0245 1420549682 25.9694
0246 1420550903 26.2215
0247 1420552124 26.5488
0248 1420553344 26.4550
0249 1420554565 26.9281
0250 1420555786 26.7835
0251 1420557006 26.4461
0252 1420558227 27.1786
0253 1420559448 27.0755
0254 1420560668 27.0369
0255 1420561889 27.1801
0256 1420563110 27.4092
0257 1420564331 27.4812
0258 1420565551 27.5566
0259 1420566772 27.7259
0260 1420567993 27.6164
0261 1420569213 27.1475
0262 1420570434 27.6260
0263 1420571655 27.8423
0264 1420572875 28.3848
0265 1420574096 28.0618
0266 1420575317 28.2264
0267 1420576538 28.2982
0268 1420577758 28.3005
0269 1420578979 27.9966
0270 1420580200 28.7250
0271 1420581420 28.7047
0272 1420582641 28.6445
0273 1420583862 28.8195
0274 1420585083 28.8923
0275 1420586303 29.2384
0276 1420587524 29.0173
0277 1420588745 29.4235
0278 1420589965 29.5824
0279 1420591186 29.8180
0280 1420592407 30.5325
0281 1420593627 31.2172
0282 1420594848 31.0792
0283 1420596069 29.8750
0284 1420597290 30.1277
0285 1420598510 30.4415
0286 1420599731 30.1350
0287 1420600952 30.2150
0288 1420602172 30.5417
0289 1420603393 30.1838
0290 1420604614 30.4360
0291 1420605834 30.4562
0292 1420607055 30.4937
0293 1420608276 30.5496
0294 1420609497 30.4939
0295 1420610717 30.1370
0296 1420611938 30.9334
0297 1420613159 30.4196
0298 1420614379 30.6851
0299 1420615600 31.0473
0300 1420616821 30.9478
0301 1420618041 31.0956
0302 1420619262 31.1574
0303 1420620483 31.5212
0304 1420621704 31.5506
0305 1420622924 31.4739
0306 1420624145 31.1324
0307 1420625366 31.5478
0308 1420626586 31.2817
0309 1420627807 31.5301
0310 1420629028 32.0188
0311 1420630249 32.0221
0312 1420631469 32.2142
0313 1420632690 32.0066
0314 1420633911 32.6624
0315 1420635131 34.0409
0316 1420636352 32.5815
0317 1420637573 32.3262
0318 1420638793 32.4138
0319 1420640014 32.3539
0320 1420641235 32.3728
0321 1420642456 32.5522
0322 1420643676 31.8902
0323 1420644897 32.6417
0324 1420646118 32.7733
0325 1420647338 32.7919
0326 1420648559 32.8899
0327 1420649780 33.3013
0328 1420651000 33.3463
0329 1420652221 32.5482
0330 1420653442 32.8953
0331 1420654663 32.8701
0332 1420655883 32.7716
0333 1420657104 33.2820
0334 1420658325 33.6994
0335 1420659545 33.8566
0336 1420660766 34.7118
0337 1420661987 34.0998
0338 1420663208 33.7903
0339 1420664428 33.8265
0340 1420665649 33.6483
0341 1420666870 33.9656
0342 1420668090 33.8388
0343 1420669311 33.7559
0344 1420670532 33.6621
0345 1420671752 33.5749
0346 1420672973 33.9962
0347 1420674194 33.9958
0348 1420675415 33.7141
0349 1420676635 34.0637
0350 1420677856 34.0924
0351 1420679077 34.4429
0352 1420680297 34.5439
0353 1420681518 34.5335
0354 1420682739 34.2835
0355 1420683959 34.2825
0356 1420685180 34.7307
0357 1420686401 34.9749
0358 1420687622 34.7244
0359 1420688842 34.2031
0360 1420690063 34.0933
0361 1420691284 34.4709
0362 1420692504 34.9383
0363 1420693725 34.5863
0364 1420694946 34.6575
0365 1420696166 34.7203
0366 1420697387 34.8675
0367 1420698608 34.7791
0368 1420699829 35.0740
0369 1420701049 34.7189
0370 1420702270 34.8559
0371 1420703491 34.5613
0372 1420704711 34.8890
0373 1420705932 35.4792
0374 1420707153 35.2624
0375 1420708374 35.0955
0376 1420709594 35.1613
0377 1420710815 35.0672
0378 1420712036 35.1375
0379 1420713256 35.0914
0380 1420714477 35.1923
0381 1420715698 35.9409
0382 1420716918 35.4840
0383 1420718139 35.5694
0384 1420719360 35.3347
0385 1420720581 35.9878
0386 1420721801 35.7241
0387 1420723022 35.7725
0388 1420724243 35.7767
0389 1420725463 36.0235
0390 1420726684 35.8862
0391 1420727905 36.2323
0392 1420729125 35.3618
0393 1420730346 35.5671
0394 1420731567 36.0996
0395 1420732788 36.4898
0396 1420734008 35.3518
0397 1420735229 35.8683
0398 1420736450 35.8617
0399 1420737670 35.6130
0400 1420738891 36.2946
0401 1420740112 36.2779
0402 1420741333 35.6675
0403 1420742553 35.9360
0404 1420743774 35.9450
0405 1420744995 35.6748
0406 1420746215 35.7771
0407 1420747436 35.9167
0408 1420748657 37.2937
0409 1420749877 36.4427
0410 1420751098 36.5189
0411 1420752319 36.5369
0412 1420753540 36.4678
0413 1420754760 37.0876
0414 1420755981 36.7935
0415 1420757202 36.5624
0416 1420758422 36.6594
0417 1420759643 36.2705
0418 1420760864 36.6896
0419 1420762084 36.9506
0420 1420763305 36.6378
0421 1420764526 36.3788
0422 1420765747 35.8995
0423 1420766967 36.2146
0424 1420768188 36.8106
0425 1420769409 36.8121
0426 1420770629 37.2212
0427 1420771850 36.3378
0428 1420773071 36.1007
0429 1420774291 36.3889
0430 1420775512 36.4511
0431 1420776733 36.0816
0432 1420777954 37.1748
0433 1420779174 36.9414
0434 1420780395 36.4428
0435 1420781616 36.5006
0436 1420782836 36.5763
0437 1420784057 36.4839
0438 1420785278 36.3396
0439 1420786499 36.1996
0440 1420787719 36.8030
0441 1420788940 36.8589
0442 1420790161 36.5348
0443 1420791381 36.3595
0444 1420792602 36.9341
0445 1420793823 36.6742
0446 1420795043 36.6757
0447 1420796264 37.3773
0448 1420797485 37.0269
0449 1420798706 37.2637
0450 1420799926 37.4824
0451 1420801147 37.6909
0452 1420802368 39.8716
0453 1420803588 39.0298
0454 1420804809 36.8522
0455 1420806030 36.6076
0456 1420807250 36.4495
0457 1420808471 36.8256
0458 1420809692 36.9722
0459 1420810913 36.9659
0460 1420812133 36.9161
0461 1420813354 36.5108
0462 1420814575 36.8534
0463 1420815795 37.0745
0464 1420817016 36.8748
0465 1420818237 37.2123
0466 1420819458 36.7452
0467 1420820678 36.9298
0468 1420821899 37.2380
0469 1420823120 36.9467
0470 1420824340 36.9525
0471 1420825561 36.7869
0472 1420826782 37.2106
0473 1420828002 36.3356
0474 1420829223 36.4927
0475 1420830444 36.8184
0476 1420831665 36.6525
0477 1420832885 36.5541
0478 1420834106 36.6437
0479 1420835327 36.9522
0480 1420836547 37.3711
0481 1420837768 36.8620
0482 1420838989 37.1985
0483 1420840209 37.0054
0484 1420841430 35.9702
0485 1420842651 36.5483
0486 1420843872 36.8533
0487 1420845092 37.4340
0488 1420846313 37.0196
0489 1420847534 36.9481
0490 1420848754 36.9196
0491 1420849975 37.0246
0492 1420851196 36.6579
0493 1420852416 36.9815
0494 1420853637 36.9495
0495 1420854858 37.1887
0496 1420856079 36.8506
0497 1420857299 37.0597
0498 1420858520 36.9051
0499 1420859741 36.6174
0500 1420860961 36.4180
0501 1420862182 37.2113
0502 1420863403 37.2188
0503 1420864624 37.5888
0504 1420865844 36.7934
0505 1420867065 37.1924
0506 1420868286 36.1984
0507 1420869506 37.1027
0508 1420870727 36.5828
0509 1420871948 36.3657
0510 1420873168 37.1069
0511 1420874389 36.9918
0512 1420875610 36.3449
0513 1420876831 37.0886
0514 1420878051 37.4003
0515 1420879272 36.9382
0516 1420880493 36.6790
0517 1420881713 36.6973
0518 1420882934 36.9743
0519 1420884155 37.3576
0520 1420885375 37.2269
0521 1420886596 37.0341
0522 1420887817 37.2168
0523 1420889038 37.0913
0524 1420890258 36.9160
0525 1420891479 36.7636
0526 1420892700 36.6830
0527 1420893920 37.0574
0528 1420895141 36.8812
0529 1420896362 36.6427
0530 1420897583 37.0024
0531 1420898803 36.7569
0532 1420900024 36.7511
0533 1420901245 36.7212
0534 1420902465 36.5672
0535 1420903686 36.8346
0536 1420904907 36.6917
0537 1420906127 36.1135
0538 1420907348 37.0581
0539 1420908569 36.3430
0540 1420909790 36.6137
0541 1420911010 36.5197
0542 1420912231 36.4395
0543 1420913452 37.2669
0544 1420914672 37.1213
0545 1420915893 36.5790
0546 1420917114 36.4826
0547 1420918334 36.5524
0548 1420919555 36.9594
0549 1420920776 36.7909
0550 1420921997 36.3550
0551 1420923217 36.4731
0552 1420924438 36.5488
0553 1420925659 36.4161
0554 1420926879 36.2265
0555 1420928100 37.1896
0556 1420929321 36.3862
0557 1420930541 36.2302
0558 1420931762 36.6389
0559 1420932983 36.9863
0560 1420934204 36.3681
0561 1420935424 36.3597
0562 1420936645 36.2336
0563 1420937866 35.9097
0564 1420939086 36.6423
0565 1420940307 36.5503
0566 1420941528 36.6053
0567 1420942749 36.4642
0568 1420943969 36.3896
0569 1420945190 36.3849
0570 1420946411 36.8888
0571 1420947631 36.7064
0572 1420948852 36.2538
0573 1420950073 36.6805
0574 1420951293 36.9360
0575 1420952514 37.1441
0576 1420953735 37.0310
0577 1420954956 36.6151
0578 1420956176 36.4341
0579 1420957397 36.2974
0580 1420958618 36.3590
0581 1420959838 36.4811
0582 1420961059 36.1652
0583 1420962280 36.5711
0584 1420963500 36.5834
0585 1420964721 36.2657
0586 1420965942 35.8587
0587 1420967163 36.5724
0588 1420968383 36.1829
0589 1420969604 36.7254
0590 1420970825 36.5840
0591 1420972045 36.4881
0592 1420973266 36.4325
0593 1420974487 36.4090
0594 1420975708 36.9362
0595 1420976928 36.6476
0596 1420978149 36.0513
0597 1420979370 36.7630
0598 1420980590 36.1933
0599 1420981811 36.3295
0600 1420983032 36.2801
0601 1420984252 36.3413
0602 1420985473 36.3048
0603 1420986694 36.4291
0604 1420987915 36.2261
0605 1420989135 36.1807
0606 1420990356 36.0571
0607 1420991577 36.2135
0608 1420992797 36.8884
0609 1420994018 36.5380
0610 1420995239 36.6389
0611 1420996459 36.3044
0612 1420997680 36.1208
0613 1420998901 36.0198
0614 1421000122 36.2099
0615 1421001342 36.6594
0616 1421002563 36.3083
0617 1421003784 36.5260
0618 1421005004 36.9810
0619 1421006225 36.8235
0620 1421007446 36.6404
0621 1421008666 36.1951
0622 1421009887 36.4425
0623 1421011108 36.0424
0624 1421012329 36.9903
0625 1421013549 36.5110
0626 1421014770 35.8629
0627 1421015991 36.9885
0628 1421017211 36.5325
0629 1421018432 37.7213
0630 1421019653 38.6152
0631 1421020874 38.3913
0632 1421022094 37.3392
0633 1421023315 36.4165
0634 1421024536 36.2088
0635 1421025756 36.0513
0636 1421026977 35.8222
0637 1421028198 36.4023
0638 1421029418 36.3691
0639 1421030639 36.1447
0640 1421031860 36.0063
0641 1421033081 36.5397
0642 1421034301 36.2415
0643 1421035522 36.2822
0644 1421036743 36.7544
0645 1421037963 36.7128
0646 1421039184 36.6120
0647 1421040405 36.1572
0648 1421041625 36.4970
0649 1421042846 36.2136
0650 1421044067 36.2742
0651 1421045288 36.0711
0652 1421046508 36.3408
0653 1421047729 36.6654
0654 1421048950 36.1851
0655 1421050170 36.1572
0656 1421051391 36.7512
0657 1421052612 36.8509
0658 1421053833 36.8533
0659 1421055053 36.4676
0660 1421056274 36.4063
0661 1421057495 36.4293
0662 1421058715 36.8429
0663 1421059936 36.3940
0664 1421061157 36.1774
0665 1421062377 36.3584
0666 1421063598 36.4802
0667 1421064819 36.0603
0668 1421066040 36.8219
0669 1421067260 36.9913
0670 1421068481 36.1808
0671 1421069702 36.9339
0672 1421070922 36.4463
0673 1421072143 36.2146
0674 1421073364 36.1997
0675 1421074584 36.7667
0676 1421075805 36.6918
0677 1421077026 36.3789
0678 1421078247 36.2377
0679 1421079467 36.4009
0680 1421080688 37.4629
0681 1421081909 37.3417
0682 1421083129 37.3553
0683 1421084350 37.3207
0684 1421085571 37.4846
0685 1421086791 39.0405
0686 1421088012 38.9745
0687 1421089233 37.7030
0688 1421090454 37.6309
0689 1421091674 37.0394
0690 1421092895 36.8012
0691 1421094116 37.0150
0692 1421095336 37.1195
0693 1421096557 36.8697
0694 1421097778 36.4053
0695 1421098999 36.7130
0696 1421100219 36.7834
0697 1421101440 36.8789
0698 1421102661 37.1870
0699 1421103881 37.1609
0700 1421105102 37.5232
0701 1421106323 37.1191
0702 1421107543 37.1790
0703 1421108764 37.3284
0704 1421109985 37.1381
0705 1421111206 36.8124
0706 1421112426 36.8952
0707 1421113647 36.8405
0708 1421114868 37.0854
0709 1421116088 37.5909
0710 1421117309 37.4163
0711 1421118530 37.0055
0712 1421119750 37.4432
0713 1421120971 37.4377
0714 1421122192 37.1116
0715 1421123413 37.4442
0716 1421124633 37.1845
0717 1421125854 37.3280
0718 1421127075 37.1599
0719 1421128295 37.8626
0720 1421129516 37.5648
0721 1421130737 37.5443
0722 1421131958 37.3951
0723 1421133178 37.3705
0724 1421134399 37.2859
0725 1421135620 37.2375
0726 1421136840 37.3858
0727 1421138061 37.3901
0728 1421139282 37.3429
0729 1421140502 37.8829
0730 1421141723 37.9174
0731 1421142944 37.8015
0732 1421144165 37.2971
0733 1421145385 37.4453
0734 1421146606 37.6164
0735 1421147827 38.2298
0736 1421149047 38.4454
0737 1421150268 37.6613
0738 1421151489 38.3767
0739 1421152709 37.7808
0740 1421153930 38.9778
0741 1421155151 39.3379
0742 1421156372 38.5500
0743 1421157592 38.0535
0744 1421158813 38.0866
0745 1421160034 37.7217
0746 1421161254 38.0347
0747 1421162475 38.1013
0748 1421163696 37.6620
0749 1421164916 38.8502
0750 1421166137 38.7034
0751 1421167358 38.4895
0752 1421168579 37.6861
0753 1421169799 38.1908
0754 1421171020 37.7788
0755 1421172241 38.2179
0756 1421173461 37.9710
0757 1421174682 38.2899
0758 1421175903 38.3082
0759 1421177124 38.3217
0760 1421178344 38.6393
0761 1421179565 37.8650
0762 1421180786 38.3662
0763 1421182006 38.9061
0764 1421183227 38.5547
0765 1421184448 38.6999
0766 1421185668 38.9025
0767 1421186889 38.5219
0768 1421188110 38.7278
0769 1421189331 39.0514
0770 1421190551 38.5227
0771 1421191772 38.5791
0772 1421192993 38.3985
0773 1421194213 39.0115
0774 1421195434 38.7026
0775 1421196655 39.0233
0776 1421197875 38.9976
0777 1421199096 39.0377
0778 1421200317 39.3097
0779 1421201538 39.5467
0780 1421202758 39.1960
0781 1421203979 38.8939
0782 1421205200 39.2163
0783 1421206420 39.2462
0784 1421207641 39.0514
0785 1421208862 39.2928
0786 1421210083 38.9087
0787 1421211303 39.1553
0788 1421212524 39.3941
0789 1421213745 39.5065
0790 1421214965 39.3620
0791 1421216186 39.5260
0792 1421217407 39.2847
0793 1421218627 40.1793
0794 1421219848 40.0180
0795 1421221069 41.2004
0796 1421222290 43.1588
0797 1421223510 41.4354
0798 1421224731 40.1158
0799 1421225952 40.1406
0800 1421227172 40.2300
0801 1421228393 40.0179
0802 1421229614 40.4032
0803 1421230834 40.8767
0804 1421232055 40.4007
0805 1421233276 40.2046
0806 1421234497 40.2293
0807 1421235717 39.9291
0808 1421236938 40.4976
0809 1421238159 39.9032
0810 1421239379 39.8454
0811 1421240600 40.4214
0812 1421241821 39.9794
0813 1421243041 40.1878
0814 1421244262 40.7516
0815 1421245483 40.2617
0816 1421246704 40.1923
0817 1421247924 40.0291
0818 1421249145 40.3526
0819 1421250366 40.1797
0820 1421251586 40.3306
0821 1421252807 40.3565
0822 1421254028 41.0314
0823 1421255249 40.6295
0824 1421256469 40.9217
0825 1421257690 41.1335
0826 1421258911 40.9953
0827 1421260131 40.4061
0828 1421261352 40.5562
0829 1421262573 41.4013
0830 1421263793 41.4232
0831 1421265014 40.6239
0832 1421266235 40.4869
0833 1421267456 40.5779
0834 1421268676 40.9338
0835 1421269897 41.6056
0836 1421271118 41.1092
0837 1421272338 41.1330
0838 1421273559 41.9691
0839 1421274780 41.4926
0840 1421276000 41.3771
0841 1421277221 41.6208
0842 1421278442 41.2535
0843 1421279663 41.2573
0844 1421280883 40.8770
0845 1421282104 41.0821
0846 1421283325 41.8170
0847 1421284545 41.0284
0848 1421285766 42.3407
0849 1421286987 42.6282
0850 1421288208 44.1723
0851 1421289428 46.2484
0852 1421290649 46.4962
0853 1421291870 44.4632
0854 1421293090 43.1446
0855 1421294311 42.1858
0856 1421295532 41.8240
0857 1421296752 41.8256
0858 1421297973 42.6976
0859 1421299194 41.6455
0860 1421300415 42.0033
0861 1421301635 42.0498
0862 1421302856 42.7590
0863 1421304077 42.8394
0864 1421305297 42.6051
0865 1421306518 42.0176
0866 1421307739 41.8458
0867 1421308959 41.4833
0868 1421310180 41.7180
0869 1421311401 42.6039
0870 1421312622 42.3590
0871 1421313842 41.9875
0872 1421315063 42.5264
0873 1421316284 42.3360
0874 1421317504 42.1662
0875 1421318725 42.6627
0876 1421319946 42.8718
0877 1421321166 42.8046
0878 1421322387 42.5403
0879 1421323608 42.6065
0880 1421324829 42.8057
0881 1421326049 43.5124
0882 1421327270 42.7751
0883 1421328491 42.5792
0884 1421329711 42.7402
0885 1421330932 43.0227
0886 1421332153 42.6911
0887 1421333374 43.8462
0888 1421334594 43.5380
0889 1421335815 41.9425
0890 1421337036 43.1649
0891 1421338256 42.6410
0892 1421339477 42.4276
0893 1421340698 43.2340
0894 1421341918 43.0991
0895 1421343139 43.1566
0896 1421344360 43.6574
0897 1421345581 43.2166
0898 1421346801 43.1642
0899 1421348022 43.8062
0900 1421349243 43.1914
0901 1421350463 44.3289
0902 1421351684 44.3202
0903 1421352905 44.4815
0904 1421354125 44.7963
0905 1421355346 45.9788
0906 1421356567 49.5095
0907 1421357788 50.2620
0908 1421359008 47.8847
0909 1421360229 45.4306
0910 1421361450 44.6237
0911 1421362670 43.6713
0912 1421363891 44.1145
0913 1421365112 44.1820
0914 1421366333 43.8479
0915 1421367553 44.0014
0916 1421368774 43.8518
0917 1421369995 44.1116
0918 1421371215 44.1507
0919 1421372436 44.0773
0920 1421373657 44.1049
0921 1421374877 43.7664
0922 1421376098 44.0729
0923 1421377319 44.7213
0924 1421378540 44.3933
0925 1421379760 44.2615
0926 1421380981 44.0206
0927 1421382202 43.8065
0928 1421383422 44.3406
0929 1421384643 44.7864
0930 1421385864 44.3024
0931 1421387084 44.0925
0932 1421388305 44.3396
0933 1421389526 44.5523
0934 1421390747 44.1029
0935 1421391967 44.4896
0936 1421393188 43.7312
0937 1421394409 44.4332
0938 1421395629 44.0872
0939 1421396850 44.3920
0940 1421398071 44.7998
0941 1421399291 44.6682
0942 1421400512 44.9473
0943 1421401733 44.7383
0944 1421402954 44.1413
0945 1421404174 44.6808
0946 1421405395 44.7905
0947 1421406616 44.3548
0948 1421407836 44.4535
0949 1421409057 45.6612
0950 1421410278 44.6184
0951 1421411499 45.4702
0952 1421412719 45.0687
0953 1421413940 44.6096
0954 1421415161 45.5138
0955 1421416381 44.9861
0956 1421417602 45.0778
0957 1421418823 45.1540
0958 1421420043 45.8714
0959 1421421264 45.7002
0960 1421422485 46.1085
0961 1421423706 46.3924
0962 1421424926 46.2944
0963 1421426147 46.1812
0964 1421427368 45.4333
0965 1421428588 45.2845
0966 1421429809 45.5603
0967 1421431030 45.6509
0968 1421432250 45.8906
0969 1421433471 45.1715
0970 1421434692 44.7175
0971 1421435913 45.8238
0972 1421437133 45.6863
0973 1421438354 45.5827
0974 1421439575 45.2291
0975 1421440795 44.8007
0976 1421442016 45.2019
0977 1421443237 45.1706
0978 1421444458 45.7939
0979 1421445678 45.7982
0980 1421446899 45.7334
0981 1421448120 45.4708
0982 1421449340 45.6070
0983 1421450561 45.5288
0984 1421451782 45.6722
0985 1421453002 45.3627
0986 1421454223 45.5206
0987 1421455444 46.2219
0988 1421456665 46.1259
0989 1421457885 45.9304
0990 1421459106 45.7788
0991 1421460327 46.2546
0992 1421461547 45.7615
0993 1421462768 45.3940
0994 1421463989 45.9312
0995 1421465209 45.8704
0996 1421466430 46.3346
0997 1421467651 46.0499
0998 1421468872 45.7496
0999 1421470092 45.8131
1000 1421471313 46.3626
1001 1421472534 46.7721
1002 1421473754 46.2631
1003 1421474975 46.2634
1004 1421476196 45.5102
1005 1421477416 46.2450
1006 1421478637 45.4842
1007 1421479858 46.4439
1008 1421481079 45.4503
1009 1421482299 46.7503
1010 1421483520 46.4923
1011 1421484741 46.2642
1012 1421485961 47.6374
1013 1421487182 47.2836
1014 1421488403 47.5382
1015 1421489624 46.9440
1016 1421490844 47.5587
1017 1421492065 48.1246
1018 1421493286 48.3303
1019 1421494506 48.4938
1020 1421495727 49.8644
1021 1421496948 50.5022
1022 1421498168 51.3132
1023 1421499389 51.2311
1024 1421500610 46.6319
1025 1421501831 51.6091
1026 1421503051 51.5372
1027 1421504272 50.2770
1028 1421505493 49.6226
1029 1421506713 48.8934
1030 1421507934 47.8739
1031 1421509155 48.2010
1032 1421510375 46.9977
1033 1421511596 47.3769
1034 1421512817 47.5492
1035 1421514038 46.8664
1036 1421515258 46.9725
1037 1421516479 45.8951
1038 1421517700 46.8418
1039 1421518920 45.9248
1040 1421520141 46.6281
1041 1421521362 46.3465
1042 1421522583 45.7255
1043 1421523803 45.7496
1044 1421525024 46.0278
1045 1421526245 46.5099
1046 1421527465 46.3377
1047 1421528686 46.3404
1048 1421529907 46.1933
1049 1421531127 45.6892
1050 1421532348 46.0381
1051 1421533569 45.8473
1052 1421534790 46.4683
1053 1421536010 46.2494
1054 1421537231 45.8194
1055 1421538452 46.2150
1056 1421539672 45.8416
1057 1421540893 46.1113
1058 1421542114 45.7974
1059 1421543334 45.5730
1060 1421544555 46.1987
1061 1421545776 45.3426
1062 1421546997 45.3832
1063 1421548217 45.3687
1064 1421549438 45.0873
1065 1421550659 45.8490
1066 1421551879 45.2264
1067 1421553100 45.4739
1068 1421554321 45.6006
1069 1421555541 45.0974
1070 1421556762 45.0733
1071 1421557983 46.1610
1072 1421559204 45.8430
1073 1421560424 45.4305
1074 1421561645 45.8668
1075 1421562866 45.8479
1076 1421564086 45.6280
1077 1421565307 45.5317
1078 1421566528 45.2939
1079 1421567749 44.6260
1080 1421568969 45.2870
1081 1421570190 44.9193
1082 1421571411 45.3606
1083 1421572631 45.4101
1084 1421573852 46.0111
1085 1421575073 45.5954
1086 1421576293 45.1818
1087 1421577514 44.6788
1088 1421578735 45.3696
1089 1421579956 45.3474
1090 1421581176 44.8967
1091 1421582397 44.4433
1092 1421583618 44.9785
1093 1421584838 44.8172
1094 1421586059 45.1959
1095 1421587280 45.1909
1096 1421588500 44.7432
1097 1421589721 44.4792
1098 1421590942 44.7280
1099 1421592163 44.9595
1100 1421593383 45.2209
1101 1421594604 45.1614
1102 1421595825 45.4119
1103 1421597045 45.1113
1104 1421598266 44.8405
1105 1421599487 44.9554
1106 1421600708 44.8844
1107 1421601928 44.7999
1108 1421603149 44.9784
1109 1421604370 44.3228
1110 1421605590 44.3362
1111 1421606811 45.2370
1112 1421608032 45.0147
1113 1421609252 44.6832
1114 1421610473 44.8155
1115 1421611694 44.7772
1116 1421612915 45.1063
1117 1421614135 45.0077
1118 1421615356 44.6657
1119 1421616577 44.4057
1120 1421617797 44.6700
1121 1421619018 44.9345
1122 1421620239 44.5514
1123 1421621459 45.1357
1124 1421622680 44.5130
1125 1421623901 44.9949
1126 1421625122 44.3484
1127 1421626342 44.3520
1128 1421627563 44.1900
1129 1421628784 43.7801
1130 1421630004 44.1584
1131 1421631225 44.1615
1132 1421632446 43.9054
1133 1421633666 44.3631
1134 1421634887 44.0963
1135 1421636108 43.4179
1136 1421637329 44.1911
1137 1421638549 44.6429
1138 1421639770 44.0923
1139 1421640991 43.9694
1140 1421642211 43.8966
1141 1421643432 43.8861
1142 1421644653 43.9696
1143 1421645874 44.0661
1144 1421647094 43.5380
1145 1421648315 43.5473
1146 1421649536 43.6421
1147 1421650756 43.7348
1148 1421651977 43.2888
1149 1421653198 43.5966
1150 1421654418 43.4219
1151 1421655639 43.3461
1152 1421656860 43.8284
1153 1421658081 43.6357
1154 1421659301 43.2959
1155 1421660522 42.3078
1156 1421661743 43.7859
1157 1421662963 43.6116
1158 1421664184 43.3846
1159 1421665405 43.5292
1160 1421666625 42.8845
1161 1421667846 43.3261
1162 1421669067 43.0644
1163 1421670288 43.1379
1164 1421671508 43.1881
1165 1421672729 43.6703
1166 1421673950 43.6573
1167 1421675170 42.4592
1168 1421676391 42.6763
1169 1421677612 42.5583
1170 1421678833 43.1051
1171 1421680053 42.8949
1172 1421681274 43.2233
1173 1421682495 43.2565
1174 1421683715 42.8092
1175 1421684936 42.6395
1176 1421686157 42.6982
1177 1421687377 42.0798
1178 1421688598 42.4105
1179 1421689819 42.7902
1180 1421691040 41.9374
1181 1421692260 42.3186
1182 1421693481 43.0768
1183 1421694702 42.2496
1184 1421695922 42.8279
1185 1421697143 42.8375
1186 1421698364 43.2192
1187 1421699584 43.1674
1188 1421700805 42.1142
1189 1421702026 42.6436
1190 1421703247 42.8307
1191 1421704467 42.1074
1192 1421705688 42.1749
1193 1421706909 41.9107
1194 1421708129 42.1125
1195 1421709350 42.1895
1196 1421710571 42.2021
1197 1421711791 42.3659
1198 1421713012 42.2846
1199 1421714233 41.9413
1200 1421715454 42.1778
1201 1421716674 42.4277
1202 1421717895 41.4090
1203 1421719116 41.9597
1204 1421720336 41.4858
1205 1421721557 41.4414
1206 1421722778 41.7290
1207 1421723999 41.9824
1208 1421725219 41.4040
1209 1421726440 41.1492
1210 1421727661 41.0421
1211 1421728881 41.5557
1212 1421730102 41.7910
1213 1421731323 41.6327
1214 1421732543 42.2927
1215 1421733764 41.7798
1216 1421734985 41.2372
1217 1421736206 41.5381
1218 1421737426 41.1394
1219 1421738647 41.3549
1220 1421739868 41.0215
1221 1421741088 41.4400
1222 1421742309 40.8480
1223 1421743530 40.4248
1224 1421744750 41.1865
1225 1421745971 41.1336
1226 1421747192 40.9323
1227 1421748413 41.1842
1228 1421749633 41.3056
1229 1421750854 40.8931
1230 1421752075 40.7952
1231 1421753295 41.1986
1232 1421754516 40.5871
1233 1421755737 40.4831
1234 1421756958 40.9774
1235 1421758178 41.1235
1236 1421759399 41.0478
1237 1421760620 41.1609
1238 1421761840 41.0522
1239 1421763061 41.0640
1240 1421764282 40.9568
1241 1421765502 40.0572
1242 1421766723 40.5974
1243 1421767944 40.8001
1244 1421769165 40.2624
1245 1421770385 40.0473
1246 1421771606 40.3206
1247 1421772827 40.0760
1248 1421774047 40.7256
1249 1421775268 40.4448
1250 1421776489 40.4265
1251 1421777709 40.5798
1252 1421778930 40.4369
1253 1421780151 40.1322
1254 1421781372 39.9409
1255 1421782592 39.7117
1256 1421783813 40.1342
1257 1421785034 40.2879
1258 1421786254 40.1467
1259 1421787475 40.0425
1260 1421788696 39.9542
1261 1421789916 39.6928
1262 1421791137 40.0645
1263 1421792358 39.8972
1264 1421793579 40.1655
1265 1421794799 40.2610
1266 1421796020 40.0178
1267 1421797241 40.2498
1268 1421798461 40.7488
1269 1421799682 39.8966
1270 1421800903 39.5941
1271 1421802124 39.8923
1272 1421803344 39.5766
1273 1421804565 41.4257
1274 1421805786 43.7168
1275 1421807006 40.5521
1276 1421808227 39.8645
1277 1421809448 39.3955
1278 1421810668 39.8590
1279 1421811889 39.3567
1280 1421813110 39.5005
1281 1421814331 39.6484
1282 1421815551 39.3620
1283 1421816772 39.5397
1284 1421817993 39.9473
1285 1421819213 39.0756
1286 1421820434 39.3525
1287 1421821655 39.3960
1288 1421822875 38.6440
1289 1421824096 39.3194
1290 1421825317 39.5103
1291 1421826538 39.8093
1292 1421827758 39.2240
1293 1421828979 38.9193
1294 1421830200 39.4837
1295 1421831420 39.0208
1296 1421832641 39.2897
1297 1421833862 39.4093
1298 1421835083 38.2137
1299 1421836303 39.1668
1300 1421837524 39.3173
1301 1421838745 39.1227
1302 1421839965 38.5496
1303 1421841186 38.5394
1304 1421842407 38.8060
1305 1421843627 38.7162
1306 1421844848 38.8645
1307 1421846069 38.7904
1308 1421847290 38.9590
1309 1421848510 38.7702
1310 1421849731 39.1914
1311 1421850952 39.3821
1312 1421852172 39.0366
1313 1421853393 39.0241
1314 1421854614 38.1526
1315 1421855834 38.5709
1316 1421857055 38.3719
1317 1421858276 38.8211
1318 1421859497 38.5756
1319 1421860717 39.0220
1320 1421861938 39.4299
1321 1421863159 40.7338
1322 1421864379 40.8544
1323 1421865600 40.1883
1324 1421866821 39.8205
1325 1421868041 38.2357
1326 1421869262 38.6248
1327 1421870483 38.6056
1328 1421871704 38.0920
1329 1421872924 37.7796
1330 1421874145 38.4322
1331 1421875366 38.0562
1332 1421876586 37.8709
1333 1421877807 38.5243
1334 1421879028 38.2534
1335 1421880249 38.0965
1336 1421881469 38.3168
1337 1421882690 38.5836
1338 1421883911 38.6422
1339 1421885131 38.1123
1340 1421886352 38.0526
1341 1421887573 38.0950
1342 1421888793 37.9222
1343 1421890014 38.3667
1344 1421891235 38.3239
1345 1421892456 38.2551
1346 1421893676 38.3010
1347 1421894897 38.1677
1348 1421896118 38.4839
1349 1421897338 38.0882
1350 1421898559 37.5833
1351 1421899780 38.0064
1352 1421901000 38.2899
1353 1421902221 38.7265
1354 1421903442 38.0055
1355 1421904663 38.0349
1356 1421905883 38.3665
1357 1421907104 37.6713
1358 1421908325 38.0744
1359 1421909545 37.4857
1360 1421910766 37.7239
1361 1421911987 37.7178
1362 1421913208 38.3058
1363 1421914428 37.4763
1364 1421915649 38.0646
1365 1421916870 38.0409
1366 1421918090 38.4992
1367 1421919311 38.2872
1368 1421920532 37.9021
1369 1421921752 37.6638
1370 1421922973 37.5299
1371 1421924194 37.4943
1372 1421925415 37.4246
1373 1421926635 37.3051
1374 1421927856 37.3250
1375 1421929077 37.5179
1376 1421930297 37.9195
1377 1421931518 37.7405
1378 1421932739 37.7545
1379 1421933959 37.7297
1380 1421935180 36.9423
1381 1421936401 37.7228
1382 1421937622 37.3318
1383 1421938842 37.6957
1384 1421940063 38.4242
1385 1421941284 37.3140
1386 1421942504 37.6147
1387 1421943725 38.0834
1388 1421944946 38.0785
1389 1421946166 38.0853
1390 1421947387 37.8461
1391 1421948608 37.6531
1392 1421949829 37.6352
1393 1421951049 37.3637
1394 1421952270 37.5504
1395 1421953491 38.0618
1396 1421954711 37.7467
1397 1421955932 37.4067
1398 1421957153 38.4332
1399 1421958374 37.5317
1400 1421959594 37.5262
1401 1421960815 37.8221
1402 1421962036 38.5354
1403 1421963256 38.0493
1404 1421964477 38.0013
1405 1421965698 37.7126
1406 1421966918 37.6553
1407 1421968139 38.2894
1408 1421969360 37.8553
1409 1421970581 37.5431
1410 1421971801 37.5405
1411 1421973022 37.1917
1412 1421974243 38.2513
1413 1421975463 37.6823
1414 1421976684 38.1538
1415 1421977905 38.2058
1416 1421979125 37.9115
1417 1421980346 37.8235
1418 1421981567 38.2051
1419 1421982788 37.8855
1420 1421984008 38.0909
1421 1421985229 38.2771
1422 1421986450 38.5716
1423 1421987670 38.1555
1424 1421988891 38.1799
1425 1421990112 37.2167
1426 1421991333 37.6841
1427 1421992553 37.9200
1428 1421993774 37.3610
1429 1421994995 37.6653
1430 1421996215 37.6946
1431 1421997436 37.7744
1432 1421998657 37.9259
1433 1421999877 38.0791
1434 1422001098 40.7527
1435 1422002319 159.1723
1436 1422003540 161.2812
1437 1422004760 41.5056
1438 1422005981 37.6220
1439 1422007202 37.3017
1440 1422008422 37.3716
1441 1422009643 37.6814
1442 1422010864 38.5186
1443 1422012084 38.1116
1444 1422013305 38.2682
1445 1422014526 37.8874
1446 1422015747 37.3088
1447 1422016967 37.6144
1448 1422018188 37.4860
1449 1422019409 37.9220
1450 1422020629 38.1712
1451 1422021850 37.7037
1452 1422023071 37.5543
1453 1422024291 37.6355
1454 1422025512 38.2717
1455 1422026733 38.2160
1456 1422027954 37.8521
1457 1422029174 38.1404
1458 1422030395 37.7547
1459 1422031616 38.0435
1460 1422032836 37.8682
1461 1422034057 38.1689
1462 1422035278 37.6164
1463 1422036499 37.6337
1464 1422037719 37.9040
1465 1422038940 37.9355
1466 1422040161 37.9483
1467 1422041381 38.1568
1468 1422042602 37.8596
1469 1422043823 37.9506
1470 1422045043 38.1624
1471 1422046264 38.0411
1472 1422047485 38.6193
1473 1422048706 38.1329
1474 1422049926 38.1209
1475 1422051147 38.5299
1476 1422052368 38.5382
1477 1422053588 38.3443
1478 1422054809 38.4633
1479 1422056030 38.0790
1480 1422057250 38.0807
1481 1422058471 38.2908
1482 1422059692 37.7154
1483 1422060913 38.5592
1484 1422062133 38.3831
1485 1422063354 38.5704
1486 1422064575 38.0304
1487 1422065795 39.0797
1488 1422067016 38.1474
1489 1422068237 38.1559
1490 1422069458 38.3732
1491 1422070678 38.7824
1492 1422071899 38.4245
1493 1422073120 38.0283
1494 1422074340 37.8710
1495 1422075561 38.0688
1496 1422076782 37.8665
1497 1422078002 38.3052
1498 1422079223 37.7370
1499 1422080444 38.4207
1500 1422081665 37.8825
1501 1422082885 37.9196
1502 1422084106 38.5574
1503 1422085327 39.1586
1504 1422086547 38.7393
1505 1422087768 38.1325
1506 1422088989 38.1115
1507 1422090209 38.6361
1508 1422091430 38.5711
1509 1422092651 38.0500
1510 1422093872 38.1269
1511 1422095092 38.2644
1512 1422096313 38.5182
1513 1422097534 38.6126
1514 1422098754 38.4581
1515 1422099975 38.0260
1516 1422101196 38.2167
1517 1422102416 38.3046
1518 1422103637 38.2343
1519 1422104858 38.3736
1520 1422106079 38.1680
1521 1422107299 38.6266
1522 1422108520 38.1727
1523 1422109741 38.4909
1524 1422110961 38.6457
1525 1422112182 38.0377
1526 1422113403 38.5482
1527 1422114624 38.6497
1528 1422115844 38.7040
1529 1422117065 38.7748
1530 1422118286 38.8518
1531 1422119506 39.2206
1532 1422120727 39.4958
1533 1422121948 39.6864
1534 1422123168 39.0341
1535 1422124389 39.1232
1536 1422125610 39.1638
1537 1422126831 38.2300
1538 1422128051 38.6698
1539 1422129272 39.0354
1540 1422130493 38.7685
1541 1422131713 39.0103
1542 1422132934 38.3741
1543 1422134155 38.5389
1544 1422135375 39.2211
1545 1422136596 38.1699
1546 1422137817 38.5612
1547 1422139038 38.6520
1548 1422140258 38.0586
1549 1422141479 38.3374
1550 1422142700 38.1987
1551 1422143920 39.0858
1552 1422145141 37.9001
1553 1422146362 38.2799
1554 1422147583 38.4849
1555 1422148803 38.7014
1556 1422150024 38.2518
1557 1422151245 38.1808
1558 1422152465 38.6889
1559 1422153686 38.2083
1560 1422154907 38.3196
1561 1422156127 38.6262
1562 1422157348 38.6707
1563 1422158569 38.8345
1564 1422159790 38.4392
1565 1422161010 38.7019
1566 1422162231 38.5108
1567 1422163452 38.6094
1568 1422164672 38.6459
1569 1422165893 38.4579
1570 1422167114 38.9599
1571 1422168334 38.7782
1572 1422169555 38.7018
1573 1422170776 39.1298
1574 1422171997 39.3077
1575 1422173217 38.9583
1576 1422174438 38.5711
1577 1422175659 39.0042
1578 1422176879 39.1182
1579 1422178100 39.1929
1580 1422179321 38.9319
1581 1422180541 38.7935
1582 1422181762 38.8159
1583 1422182983 38.5770
1584 1422184204 38.5911
1585 1422185424 38.6652
1586 1422186645 38.8949
1587 1422187866 39.0942
1588 1422189086 38.8047
1589 1422190307 39.1311
1590 1422191528 38.5588
1591 1422192749 38.8850
1592 1422193969 38.8485
1593 1422195190 39.0928
1594 1422196411 39.0821
1595 1422197631 39.2931
1596 1422198852 39.9314
1597 1422200073 42.7597
1598 1422201293 40.0096
1599 1422202514 39.2737
1600 1422203735 40.0802
1601 1422204956 39.1477
1602 1422206176 39.6208
1603 1422207397 39.5112
1604 1422208618 38.3367
1605 1422209838 38.8651
1606 1422211059 38.6901
1607 1422212280 37.8391
1608 1422213500 38.3701
1609 1422214721 39.1022
1610 1422215942 38.6741
1611 1422217163 38.7926
1612 1422218383 38.5962
1613 1422219604 38.7338
1614 1422220825 38.9030
1615 1422222045 38.4256
1616 1422223266 38.2170
1617 1422224487 38.8450
1618 1422225708 38.9443
1619 1422226928 38.4990
1620 1422228149 38.0726
1621 1422229370 38.0219
1622 1422230590 38.5718
1623 1422231811 38.4531
1624 1422233032 38.4877
1625 1422234252 38.5487
1626 1422235473 38.2776
1627 1422236694 38.5196
1628 1422237915 38.3297
1629 1422239135 38.6908
1630 1422240356 38.0504
1631 1422241577 38.4017
1632 1422242797 38.7025
1633 1422244018 39.0014
1634 1422245239 38.1974
1635 1422246459 38.0632
1636 1422247680 37.4254
1637 1422248901 38.3255
1638 1422250122 38.2990
1639 1422251342 38.0204
1640 1422252563 38.0659
1641 1422253784 38.2600
1642 1422255004 38.0861
1643 1422256225 37.9585
1644 1422257446 37.8945
1645 1422258666 38.3473
1646 1422259887 38.0551
1647 1422261108 38.1708
1648 1422262329 38.2883
1649 1422263549 37.9370
1650 1422264770 37.6525
1651 1422265991 38.1168
1652 1422267211 38.1870
1653 1422268432 38.0671
1654 1422269653 37.9944
1655 1422270874 37.9776
1656 1422272094 37.6036
1657 1422273315 37.7541
1658 1422274536 37.4659
1659 1422275756 37.9223
1660 1422276977 37.8384
1661 1422278198 37.6080
1662 1422279418 37.3605
1663 1422280639 38.2718
1664 1422281860 38.1145
1665 1422283081 38.2126
1666 1422284301 38.1192
1667 1422285522 38.2965
1668 1422286743 37.4446
1669 1422287963 37.7242
1670 1422289184 37.7574
1671 1422290405 37.2990
1672 1422291625 37.0043
1673 1422292846 37.4097
1674 1422294067 37.3456
1675 1422295288 37.6306
1676 1422296508 37.6497
1677 1422297729 36.9332
1678 1422298950 36.5890
1679 1422300170 36.9660
1680 1422301391 36.7339
1681 1422302612 37.1070
1682 1422303833 37.2318
1683 1422305053 37.1562
1684 1422306274 37.1856
1685 1422307495 37.3189
1686 1422308715 36.9562
1687 1422309936 36.5518
1688 1422311157 36.7395
1689 1422312377 36.7601
1690 1422313598 36.8215
1691 1422314819 36.2047
1692 1422316040 36.3529
1693 1422317260 35.9429
1694 1422318481 36.8328
1695 1422319702 35.9630
1696 1422320922 36.0052
1697 1422322143 36.0537
1698 1422323364 36.5091
1699 1422324584 36.1786
1700 1422325805 36.3815
1701 1422327026 35.6428
1702 1422328247 35.6864
1703 1422329467 35.4501
1704 1422330688 35.6292
1705 1422331909 35.3010
1706 1422333129 35.1276
1707 1422334350 35.2366
1708 1422335571 35.4847
1709 1422336791 35.7259
1710 1422338012 35.4718
1711 1422339233 35.4864
1712 1422340454 35.0848
1713 1422341674 35.0930
1714 1422342895 35.1454
1715 1422344116 34.5697
1716 1422345336 35.0689
1717 1422346557 34.7809
1718 1422347778 35.4347
1719 1422348999 34.6911
1720 1422350219 34.5863
1721 1422351440 34.5708
1722 1422352661 34.4450
1723 1422353881 34.5708
1724 1422355102 34.6212
1725 1422356323 34.3064
1726 1422357543 34.1645
1727 1422358764 34.5928
1728 1422359985 34.5555
1729 1422361206 34.4218
1730 1422362426 33.9833
1731 1422363647 34.8901
1732 1422364868 33.8061
1733 1422366088 33.9228
1734 1422367309 33.8560
1735 1422368530 34.0762
1736 1422369750 33.6944
1737 1422370971 33.8200
1738 1422372192 34.0248
1739 1422373413 33.7093
1740 1422374633 33.2877
1741 1422375854 33.5884
1742 1422377075 32.6281
1743 1422378295 33.0116
1744 1422379516 32.7668
1745 1422380737 32.7629
1746 1422381958 33.0609
1747 1422383178 32.8734
1748 1422384399 32.4051
1749 1422385620 32.7731
1750 1422386840 32.3919
1751 1422388061 32.4249
1752 1422389282 32.6159
1753 1422390502 32.7732
1754 1422391723 32.0933
1755 1422392944 31.9749
1756 1422394165 32.4565
1757 1422395385 31.5580
1758 1422396606 32.2157
1759 1422397827 32.4746
1760 1422399047 32.1089
1761 1422400268 31.5984
1762 1422401489 31.6852
1763 1422402709 31.5305
1764 1422403930 31.4314
1765 1422405151 31.7211
1766 1422406372 31.2738
1767 1422407592 30.8264
1768 1422408813 30.8624
1769 1422410034 30.9506
1770 1422411254 30.8653
1771 1422412475 30.5087
1772 1422413696 30.9263
1773 1422414916 30.4288
1774 1422416137 30.6105
1775 1422417358 30.4783
1776 1422418579 30.4384
1777 1422419799 30.3446
1778 1422421020 30.2265
1779 1422422241 30.1488
1780 1422423461 29.8006
1781 1422424682 30.3343
1782 1422425903 30.1290
1783 1422427124 29.9707
1784 1422428344 29.3082
1785 1422429565 29.6150
1786 1422430786 28.9617
1787 1422432006 29.2572
1788 1422433227 29.1625
1789 1422434448 29.2086
1790 1422435668 29.1809
1791 1422436889 28.7689
1792 1422438110 28.6684
1793 1422439331 28.7888
1794 1422440551 29.1274
1795 1422441772 28.5243
1796 1422442993 28.1109
1797 1422444213 28.2724
1798 1422445434 28.3485
1799 1422446655 27.8120
1800 1422447875 28.1636
1801 1422449096 27.9209
1802 1422450317 27.9126
1803 1422451538 27.7594
1804 1422452758 27.7672
1805 1422453979 27.6205
1806 1422455200 27.4270
1807 1422456420 27.3173
1808 1422457641 27.2360
1809 1422458862 27.2012
1810 1422460083 27.1365
1811 1422461303 26.9523
1812 1422462524 26.7760
1813 1422463745 26.7938
1814 1422464965 26.8247
1815 1422466186 26.6803
1816 1422467407 26.4068
1817 1422468627 26.7648
1818 1422469848 26.3243
1819 1422471069 26.1077
1820 1422472290 26.0629
1821 1422473510 25.5764
1822 1422474731 25.7310
1823 1422475952 25.5499
1824 1422477172 25.2138
1825 1422478393 25.3592
1826 1422479614 25.3348
1827 1422480834 25.0680
1828 1422482055 25.0854
1829 1422483276 25.0469
1830 1422484497 24.8018
1831 1422485717 24.9480
1832 1422486938 24.7228
1833 1422488159 24.6519
1834 1422489379 24.7187
1835 1422490600 24.2546
1836 1422491821 24.0918
1837 1422493041 24.1934
1838 1422494262 24.1246
1839 1422495483 23.7071
1840 1422496704 23.7935
1841 1422497924 24.0637
1842 1422499145 23.3143
1843 1422500366 23.1502
1844 1422501586 23.2337
1845 1422502807 23.6912
1846 1422504028 23.5219
1847 1422505249 22.9810
1848 1422506469 22.9889
1849 1422507690 22.6446
1850 1422508911 22.8765
1851 1422510131 22.4993
1852 1422511352 22.5783
1853 1422512573 22.5442
1854 1422513793 22.5496
1855 1422515014 22.1238
1856 1422516235 21.7748
1857 1422517456 21.9112
1858 1422518676 21.6303
1859 1422519897 21.6202
1860 1422521118 21.3275
1861 1422522338 21.3248
1862 1422523559 21.1050
1863 1422524780 21.3285
1864 1422526000 21.1438
1865 1422527221 20.9095
1866 1422528442 20.8051
1867 1422529663 20.8945
1868 1422530883 20.6733
1869 1422532104 20.3272
1870 1422533325 20.2739
1871 1422534545 20.4063
1872 1422535766 20.4206
1873 1422536987 20.1402
1874 1422538208 19.7776
1875 1422539428 19.9650
1876 1422540649 19.7975
1877 1422541870 19.3799
1878 1422543090 19.5753
1879 1422544311 19.2177
1880 1422545532 19.1753
1881 1422546752 18.9999
1882 1422547973 19.1963
1883 1422549194 18.9344
1884 1422550415 18.8581
1885 1422551635 18.7891
1886 1422552856 18.8829
1887 1422554077 18.6488
1888 1422555297 18.4889
1889 1422556518 18.6243
1890 1422557739 18.4492
1891 1422558959 18.2208
1892 1422560180 18.0012
1893 1422561401 17.6655
1894 1422562622 17.8059
1895 1422563842 17.7694
1896 1422565063 17.6522
1897 1422566284 17.5445
1898 1422567504 17.1623
1899 1422568725 17.5538
1900 1422569946 17.1413
1901 1422571166 16.7666
1902 1422572387 16.9944
1903 1422573608 16.9408
1904 1422574829 16.8215
1905 1422576049 16.8002
1906 1422577270 16.7351
1907 1422578491 16.5873
1908 1422579711 16.3084
1909 1422580932 16.1342
1910 1422582153 16.2510
1911 1422583374 16.1265
1912 1422584594 15.9440
1913 1422585815 16.0260
1914 1422587036 15.5994
1915 1422588256 15.7184
1916 1422589477 15.5982
1917 1422590698 15.2779
1918 1422591918 15.2823
1919 1422593139 15.3098
1920 1422594360 15.2187
1921 1422595581 15.0590
1922 1422596801 14.7782
1923 1422598022 14.9254
1924 1422599243 14.6160
1925 1422600463 14.6243
1926 1422601684 14.5954
1927 1422602905 14.4547
1928 1422604125 14.4597
1929 1422605346 14.4295
1930 1422606567 14.1969
1931 1422607788 14.1190
1932 1422609008 13.9270
1933 1422610229 13.8088
1934 1422611450 13.8455
1935 1422612670 13.7306
1936 1422613891 13.4261
1937 1422615112 13.7189
1938 1422616333 13.3934
1939 1422617553 13.2864
1940 1422618774 13.4103
1941 1422619995 13.1924
1942 1422621215 12.9674
1943 1422622436 12.9671
1944 1422623657 12.6683
1945 1422624877 12.8536
1946 1422626098 12.6649
1947 1422627319 12.7401
1948 1422628540 12.5031
1949 1422629760 12.3498
1950 1422630981 12.3862
1951 1422632202 12.3430
1952 1422633422 12.3547
1953 1422634643 12.2213
1954 1422635864 12.2233
1955 1422637084 12.0116
1956 1422638305 12.0752
1957 1422639526 11.9259
1958 1422640747 11.5970
1959 1422641967 11.6926
1960 1422643188 11.4756
1961 1422644409 11.4807
1962 1422645629 11.4810
1963 1422646850 11.4543
1964 1422648071 11.4691
1965 1422649291 11.2447
1966 1422650512 11.2426
1967 1422651733 11.1095
1968 1422652954 10.9946
1969 1422654174 10.8316
1970 1422655395 10.8725
1971 1422656616 10.9083
1972 1422657836 10.8485
1973 1422659057 10.7449
1974 1422660278 10.6041
1975 1422661499 10.4875
1976 1422662719 10.4027
1977 1422663940 10.5021
1978 1422665161 10.4064
1979 1422666381 10.1878
1980 1422667602 10.3749
1981 1422668823 10.1700
1982 1422670043 10.2374
1983 1422671264 9.9482
1984 1422672485 10.0917
1985 1422673706 9.9508
1986 1422674926 9.8905
1987 1422676147 9.9458
1988 1422677368 9.8272
1989 1422678588 9.8558
1990 1422679809 9.7092
1991 1422681030 9.6511
1992 1422682250 9.4996
1993 1422683471 9.4916
1994 1422684692 9.5942
1995 1422685913 9.4302
1996 1422687133 9.4476
1997 1422688354 9.3608
1998 1422689575 9.4001
1999 1422690795 9.2508
2000 1422692016 9.1788
2001 1422693237 9.1186
2002 1422694458 9.1007
2003 1422695678 9.0455
2004 1422696899 8.9219
2005 1422698120 8.9974
2006 1422699340 9.0336
2007 1422700561 9.1740
2008 1422701782 8.9725
2009 1422703002 8.8142
2010 1422704223 8.7808
2011 1422705444 8.6998
2012 1422706665 8.8020
2013 1422707885 8.6181
2014 1422709106 8.7089
2015 1422710327 8.5742
2016 1422711547 8.6248
2017 1422712768 8.6522
2018 1422713989 8.5173
2019 1422715209 8.4907
2020 1422716430 8.4096
2021 1422717651 8.4016
2022 1422718872 8.4480
2023 1422720092 8.3725
2024 1422721313 8.3347
2025 1422722534 8.2818
2026 1422723754 8.2862
2027 1422724975 8.2845
2028 1422726196 8.2988
2029 1422727416 8.1994
2030 1422728637 8.3155
2031 1422729858 8.3033
2032 1422731079 8.1110
2033 1422732299 8.1439
2034 1422733520 8.1366
2035 1422734741 8.1066
2036 1422735961 8.0909
2037 1422737182 8.1093
2038 1422738403 7.9975
2039 1422739624 8.0061
2040 1422740844 7.9962
2041 1422742065 8.0576
2042 1422743286 7.9843
2043 1422744506 8.0327
2044 1422745727 8.1174
2045 1422746948 8.0231
2046 1422748168 7.9208
2047 1422749389 8.3964
