# File: 20-06-07T195344.ast
# NOTEA     = None Attached.  RTLSDR Dongle Test
# NOTEB     = Spectral Integration
# OBSERVER  = Science Aficionado
# DEVICE    = rtl=0,bias=1
# DATADIR   = ../data/
# SITE      = None Attached.  RTLSDR Dongle Test
# CITY      = Seattle
# REGION    = Washington
# COUNTRY   = US
# TELTYPE   = UW CSE 490W Dish
# FRAME     = TOPO
# GAIN1     = 49.0
# GAIN2     = 11.0
# GAIN3     = 11.0
# GAIN4     = 0.0
# Count     = 2500
# CenterFreq= 1421500000.0
# Bandwidth = 2500000.0
# Duration  = 41.941457
# DeltaX    = 5859.375
# TSYS      = 200.0
# TRX       = 100.0
# TRMS      = 2.0
# TINT      = 1.0
# KPERC     = 100.0
# GAINFACT  = 1.0
# BUNIT     = Counts
# NCHAN     = 2048
# NSPEC     = 1
# NTIME     = 0
# NSAMPLES  = 0
# EPEAK     = 4.10875183718
# ERMS      = 0.995973393526
# EMJD      = 58568.808999981004 
# REFCHAN   = 1024.0
# REFSAMPL  = 256.0
# NAVE      = 50
# NMEDIAN   = 1024
# Fft_rate  = 5000
# UTC       = 2020-06-07 19:53:44.726694
# SECONDS   =       0.0000000000 
# LST       = 09:09:40.080
# AZ        = 180.0
# EL        = 90.0
# TELLON    = -57:41:09.900
# TELLAT    = +47:39:13.800
# RA        = 09:06:55.960
# DEC       = +47:48:57.100
# GALLON    = 171:41:24.20
# GALLAT    = +42:08:34.70
# ALT_SUN   = +36:02:10.0
# AZ_SUN    = +265:07:38.8
# ETAA      = 0.8
# ETAB      = 0.99
# POLANGLE  = 0.0
# TELSIZEAM = 1.0
# TELSIZEBM = 1.0
# AST_VERS  = 05.01
0000 1420250610 8.1590
0001 1420251831 8.0831
0002 1420253051 7.9003
0003 1420254272 8.0173
0004 1420255493 8.0770
0005 1420256713 7.9762
0006 1420257934 7.9542
0007 1420259155 7.9422
0008 1420260375 7.9574
0009 1420261596 7.9746
0010 1420262817 8.1067
0011 1420264038 8.1035
0012 1420265258 8.1770
0013 1420266479 8.1454
0014 1420267700 8.1624
0015 1420268920 8.1020
0016 1420270141 8.0917
0017 1420271362 8.0037
0018 1420272583 8.1758
0019 1420273803 8.0719
0020 1420275024 8.1359
0021 1420276245 8.2082
0022 1420277465 8.2734
0023 1420278686 8.2321
0024 1420279907 8.1921
0025 1420281127 8.4020
0026 1420282348 8.2141
0027 1420283569 8.4000
0028 1420284790 8.4552
0029 1420286010 8.4447
0030 1420287231 8.4333
0031 1420288452 8.4211
0032 1420289672 8.4854
0033 1420290893 8.5070
0034 1420292114 8.5266
0035 1420293334 8.5485
0036 1420294555 8.6275
0037 1420295776 8.6289
0038 1420296997 8.6686
0039 1420298217 8.8423
0040 1420299438 8.9429
0041 1420300659 9.1671
0042 1420301879 8.9954
0043 1420303100 9.0379
0044 1420304321 9.0843
0045 1420305541 9.0146
0046 1420306762 8.9719
0047 1420307983 9.0786
0048 1420309204 9.1564
0049 1420310424 9.1991
0050 1420311645 9.2555
0051 1420312866 9.3432
0052 1420314086 9.4855
0053 1420315307 9.6020
0054 1420316528 9.6597
0055 1420317749 9.5129
0056 1420318969 9.6396
0057 1420320190 9.6887
0058 1420321411 9.5712
0059 1420322631 9.7618
0060 1420323852 9.7394
0061 1420325073 9.8789
0062 1420326293 9.9402
0063 1420327514 10.0719
0064 1420328735 9.9148
0065 1420329956 10.0095
0066 1420331176 10.0983
0067 1420332397 10.1962
0068 1420333618 10.3670
0069 1420334838 10.4346
0070 1420336059 10.3756
0071 1420337280 10.4530
0072 1420338500 10.4452
0073 1420339721 10.5489
0074 1420340942 10.5994
0075 1420342163 10.5693
0076 1420343383 10.6326
0077 1420344604 10.7006
0078 1420345825 10.8453
0079 1420347045 10.9607
0080 1420348266 10.9347
0081 1420349487 10.8201
0082 1420350708 10.9705
0083 1420351928 11.2012
0084 1420353149 11.1813
0085 1420354370 11.2822
0086 1420355590 11.3978
0087 1420356811 11.3182
0088 1420358032 11.3211
0089 1420359252 11.2933
0090 1420360473 11.4846
0091 1420361694 11.4834
0092 1420362915 11.5568
0093 1420364135 11.7644
0094 1420365356 11.7167
0095 1420366577 11.7887
0096 1420367797 12.0462
0097 1420369018 12.1091
0098 1420370239 12.0390
0099 1420371459 12.1216
0100 1420372680 12.2222
0101 1420373901 12.4216
0102 1420375122 12.3558
0103 1420376342 12.5862
0104 1420377563 12.7701
0105 1420378784 12.5257
0106 1420380004 12.6400
0107 1420381225 12.7393
0108 1420382446 13.0051
0109 1420383666 13.0247
0110 1420384887 13.1743
0111 1420386108 13.0448
0112 1420387329 13.0729
0113 1420388549 13.1168
0114 1420389770 13.2322
0115 1420390991 13.3794
0116 1420392211 13.4315
0117 1420393432 13.5550
0118 1420394653 13.7998
0119 1420395874 13.7774
0120 1420397094 13.8357
0121 1420398315 13.8302
0122 1420399536 13.8615
0123 1420400756 14.0376
0124 1420401977 14.1482
0125 1420403198 14.2551
0126 1420404418 14.3114
0127 1420405639 14.2766
0128 1420406860 14.4557
0129 1420408081 14.6637
0130 1420409301 14.6843
0131 1420410522 14.8584
0132 1420411743 15.0352
0133 1420412963 14.9931
0134 1420414184 15.0746
0135 1420415405 15.5177
0136 1420416625 15.6131
0137 1420417846 15.2391
0138 1420419067 15.2728
0139 1420420288 15.4817
0140 1420421508 15.5383
0141 1420422729 15.9927
0142 1420423950 15.9490
0143 1420425170 16.0539
0144 1420426391 16.1237
0145 1420427612 16.0362
0146 1420428833 16.1247
0147 1420430053 16.2597
0148 1420431274 16.3234
0149 1420432495 16.3161
0150 1420433715 16.4582
0151 1420434936 16.6943
0152 1420436157 16.6158
0153 1420437377 16.8456
0154 1420438598 16.9570
0155 1420439819 17.1811
0156 1420441040 17.3455
0157 1420442260 17.3695
0158 1420443481 17.3094
0159 1420444702 17.9118
0160 1420445922 17.9297
0161 1420447143 17.6698
0162 1420448364 17.8349
0163 1420449584 18.2206
0164 1420450805 18.3552
0165 1420452026 18.1259
0166 1420453247 18.1458
0167 1420454467 18.3249
0168 1420455688 18.4524
0169 1420456909 18.5241
0170 1420458129 18.6874
0171 1420459350 18.4204
0172 1420460571 18.7834
0173 1420461791 18.5365
0174 1420463012 18.7356
0175 1420464233 19.0338
0176 1420465454 18.9809
0177 1420466674 19.3705
0178 1420467895 19.0028
0179 1420469116 19.2512
0180 1420470336 19.6722
0181 1420471557 19.7665
0182 1420472778 19.7422
0183 1420473999 19.6361
0184 1420475219 20.2795
0185 1420476440 20.4296
0186 1420477661 20.2517
0187 1420478881 20.3101
0188 1420480102 20.5087
0189 1420481323 20.8258
0190 1420482543 20.2845
0191 1420483764 20.9715
0192 1420484985 20.8068
0193 1420486206 20.7465
0194 1420487426 20.9071
0195 1420488647 21.1241
0196 1420489868 21.2021
0197 1420491088 21.3955
0198 1420492309 21.5112
0199 1420493530 21.4900
0200 1420494750 21.7559
0201 1420495971 21.8043
0202 1420497192 21.7871
0203 1420498413 22.5951
0204 1420499633 23.2732
0205 1420500854 22.0207
0206 1420502075 22.3514
0207 1420503295 22.1666
0208 1420504516 22.3875
0209 1420505737 22.2975
0210 1420506958 22.5848
0211 1420508178 22.4965
0212 1420509399 22.8113
0213 1420510620 23.0363
0214 1420511840 23.1905
0215 1420513061 23.0981
0216 1420514282 23.4180
0217 1420515502 23.5898
0218 1420516723 23.9035
0219 1420517944 23.7981
0220 1420519165 24.1447
0221 1420520385 23.9379
0222 1420521606 23.5324
0223 1420522827 23.7679
0224 1420524047 24.1439
0225 1420525268 24.5263
0226 1420526489 24.5520
0227 1420527709 24.4083
0228 1420528930 24.6572
0229 1420530151 24.5340
0230 1420531372 25.0165
0231 1420532592 25.0134
0232 1420533813 24.7971
0233 1420535034 24.6231
0234 1420536254 25.1383
0235 1420537475 25.2975
0236 1420538696 25.0760
0237 1420539916 25.3149
0238 1420541137 25.7856
0239 1420542358 25.4269
0240 1420543579 25.3378
0241 1420544799 25.4152
0242 1420546020 25.5052
0243 1420547241 25.5637
0244 1420548461 25.9263
0245 1420549682 26.1433
0246 1420550903 25.9715
0247 1420552124 26.0264
0248 1420553344 26.2060
0249 1420554565 26.6102
0250 1420555786 26.7953
0251 1420557006 26.7322
0252 1420558227 26.5719
0253 1420559448 27.1301
0254 1420560668 26.8734
0255 1420561889 27.0728
0256 1420563110 27.0506
0257 1420564331 27.0053
0258 1420565551 26.9749
0259 1420566772 27.2041
0260 1420567993 27.2884
0261 1420569213 27.2280
0262 1420570434 27.3878
0263 1420571655 27.9192
0264 1420572875 27.6130
0265 1420574096 28.1585
0266 1420575317 27.9122
0267 1420576538 28.6598
0268 1420577758 27.9572
0269 1420578979 28.1506
0270 1420580200 28.1410
0271 1420581420 28.4137
0272 1420582641 28.8922
0273 1420583862 29.6417
0274 1420585083 30.0222
0275 1420586303 29.9613
0276 1420587524 29.6190
0277 1420588745 29.4285
0278 1420589965 29.6109
0279 1420591186 29.2629
0280 1420592407 29.4193
0281 1420593627 29.3751
0282 1420594848 30.0269
0283 1420596069 29.6266
0284 1420597290 29.5381
0285 1420598510 29.6038
0286 1420599731 29.8957
0287 1420600952 29.7807
0288 1420602172 30.2504
0289 1420603393 29.8478
0290 1420604614 30.2039
0291 1420605834 30.4552
0292 1420607055 30.5218
0293 1420608276 30.3581
0294 1420609497 30.1545
0295 1420610717 30.5626
0296 1420611938 30.5688
0297 1420613159 30.7291
0298 1420614379 30.6644
0299 1420615600 30.8328
0300 1420616821 30.7968
0301 1420618041 30.8250
0302 1420619262 30.6704
0303 1420620483 30.7313
0304 1420621704 31.2021
0305 1420622924 30.9459
0306 1420624145 31.1670
0307 1420625366 31.2623
0308 1420626586 31.6125
0309 1420627807 31.3747
0310 1420629028 31.6002
0311 1420630249 31.8310
0312 1420631469 31.4398
0313 1420632690 31.6139
0314 1420633911 33.0952
0315 1420635131 33.8175
0316 1420636352 31.9896
0317 1420637573 31.9645
0318 1420638793 32.0432
0319 1420640014 32.1194
0320 1420641235 32.6708
0321 1420642456 32.5516
0322 1420643676 32.5844
0323 1420644897 32.6316
0324 1420646118 32.4542
0325 1420647338 32.6015
0326 1420648559 32.2611
0327 1420649780 33.1399
0328 1420651000 32.7482
0329 1420652221 33.3503
0330 1420653442 33.4453
0331 1420654663 33.5822
0332 1420655883 33.1715
0333 1420657104 32.8430
0334 1420658325 33.4070
0335 1420659545 33.0679
0336 1420660766 33.1064
0337 1420661987 32.7887
0338 1420663208 33.6704
0339 1420664428 33.1896
0340 1420665649 33.4556
0341 1420666870 33.2599
0342 1420668090 33.7240
0343 1420669311 33.7223
0344 1420670532 33.3207
0345 1420671752 33.8128
0346 1420672973 33.9320
0347 1420674194 33.5134
0348 1420675415 33.8135
0349 1420676635 33.6710
0350 1420677856 34.3751
0351 1420679077 34.4179
0352 1420680297 34.3137
0353 1420681518 34.1082
0354 1420682739 34.3054
0355 1420683959 34.1788
0356 1420685180 34.1986
0357 1420686401 34.5884
0358 1420687622 34.8129
0359 1420688842 34.3267
0360 1420690063 34.9560
0361 1420691284 34.9422
0362 1420692504 34.7989
0363 1420693725 34.3218
0364 1420694946 34.2814
0365 1420696166 34.3782
0366 1420697387 34.4790
0367 1420698608 35.1611
0368 1420699829 34.9716
0369 1420701049 34.6241
0370 1420702270 34.8498
0371 1420703491 34.8502
0372 1420704711 34.6074
0373 1420705932 35.2524
0374 1420707153 35.0631
0375 1420708374 35.3512
0376 1420709594 35.2803
0377 1420710815 35.3903
0378 1420712036 35.0886
0379 1420713256 35.3794
0380 1420714477 35.4297
0381 1420715698 35.4775
0382 1420716918 35.4946
0383 1420718139 35.5105
0384 1420719360 35.2471
0385 1420720581 35.3789
0386 1420721801 35.8378
0387 1420723022 35.5487
0388 1420724243 35.3415
0389 1420725463 35.0358
0390 1420726684 35.7863
0391 1420727905 35.5460
0392 1420729125 35.5543
0393 1420730346 35.8642
0394 1420731567 35.8105
0395 1420732788 35.6319
0396 1420734008 35.7170
0397 1420735229 35.6503
0398 1420736450 35.7604
0399 1420737670 35.7468
0400 1420738891 35.7300
0401 1420740112 36.2837
0402 1420741333 36.3179
0403 1420742553 35.9585
0404 1420743774 36.2074
0405 1420744995 36.2088
0406 1420746215 36.0187
0407 1420747436 35.8872
0408 1420748657 35.9394
0409 1420749877 36.1002
0410 1420751098 35.7024
0411 1420752319 36.1211
0412 1420753540 36.0010
0413 1420754760 35.9980
0414 1420755981 36.1921
0415 1420757202 36.5279
0416 1420758422 36.4329
0417 1420759643 36.2285
0418 1420760864 36.3086
0419 1420762084 36.2887
0420 1420763305 35.8333
0421 1420764526 36.1969
0422 1420765747 35.8393
0423 1420766967 36.2801
0424 1420768188 36.5149
0425 1420769409 36.9781
0426 1420770629 37.1339
0427 1420771850 36.3925
0428 1420773071 37.1373
0429 1420774291 36.3168
0430 1420775512 36.3061
0431 1420776733 36.3667
0432 1420777954 36.2601
0433 1420779174 36.5719
0434 1420780395 36.6706
0435 1420781616 36.8313
0436 1420782836 36.5143
0437 1420784057 36.4823
0438 1420785278 36.6064
0439 1420786499 36.7284
0440 1420787719 36.4788
0441 1420788940 36.2887
0442 1420790161 35.7024
0443 1420791381 36.3069
0444 1420792602 36.0108
0445 1420793823 36.2064
0446 1420795043 36.4592
0447 1420796264 36.7905
0448 1420797485 36.4316
0449 1420798706 37.1240
0450 1420799926 37.6755
0451 1420801147 37.5323
0452 1420802368 38.3604
0453 1420803588 39.6432
0454 1420804809 36.8734
0455 1420806030 36.5968
0456 1420807250 36.8147
0457 1420808471 36.6797
0458 1420809692 36.8530
0459 1420810913 36.1687
0460 1420812133 36.7672
0461 1420813354 36.7607
0462 1420814575 36.6224
0463 1420815795 36.5759
0464 1420817016 36.4075
0465 1420818237 36.3016
0466 1420819458 36.8092
0467 1420820678 36.3530
0468 1420821899 36.7513
0469 1420823120 36.5985
0470 1420824340 36.7813
0471 1420825561 37.0253
0472 1420826782 37.0905
0473 1420828002 37.1897
0474 1420829223 36.5604
0475 1420830444 36.5858
0476 1420831665 37.3262
0477 1420832885 36.2588
0478 1420834106 36.9397
0479 1420835327 36.7130
0480 1420836547 36.4452
0481 1420837768 36.4727
0482 1420838989 36.5862
0483 1420840209 36.8739
0484 1420841430 37.0865
0485 1420842651 36.8834
0486 1420843872 36.4254
0487 1420845092 36.1899
0488 1420846313 36.7297
0489 1420847534 36.8633
0490 1420848754 36.7810
0491 1420849975 37.2890
0492 1420851196 36.9823
0493 1420852416 37.2877
0494 1420853637 36.9163
0495 1420854858 36.5853
0496 1420856079 36.6964
0497 1420857299 36.8432
0498 1420858520 36.2592
0499 1420859741 36.7738
0500 1420860961 37.0915
0501 1420862182 36.7438
0502 1420863403 37.1531
0503 1420864624 37.0454
0504 1420865844 36.4605
0505 1420867065 36.7787
0506 1420868286 36.6298
0507 1420869506 36.6771
0508 1420870727 36.5394
0509 1420871948 36.5680
0510 1420873168 36.9665
0511 1420874389 36.3547
0512 1420875610 36.8157
0513 1420876831 36.8225
0514 1420878051 36.5665
0515 1420879272 37.0742
0516 1420880493 36.7592
0517 1420881713 36.5958
0518 1420882934 36.8012
0519 1420884155 36.7141
0520 1420885375 37.0735
0521 1420886596 36.8799
0522 1420887817 36.7080
0523 1420889038 36.6140
0524 1420890258 36.6580
0525 1420891479 36.0623
0526 1420892700 36.5480
0527 1420893920 36.6095
0528 1420895141 36.8915
0529 1420896362 36.5831
0530 1420897583 36.9399
0531 1420898803 36.4542
0532 1420900024 36.5664
0533 1420901245 37.1838
0534 1420902465 36.7541
0535 1420903686 36.8182
0536 1420904907 35.7298
0537 1420906127 35.8165
0538 1420907348 36.7462
0539 1420908569 36.2312
0540 1420909790 36.3220
0541 1420911010 36.6443
0542 1420912231 36.7299
0543 1420913452 36.5565
0544 1420914672 36.3644
0545 1420915893 36.2252
0546 1420917114 36.9256
0547 1420918334 36.5488
0548 1420919555 36.9298
0549 1420920776 36.2081
0550 1420921997 36.3741
0551 1420923217 36.2082
0552 1420924438 36.6217
0553 1420925659 36.1010
0554 1420926879 35.8508
0555 1420928100 36.2119
0556 1420929321 36.1209
0557 1420930541 36.2580
0558 1420931762 36.2502
0559 1420932983 36.4863
0560 1420934204 36.0497
0561 1420935424 36.6890
0562 1420936645 36.8263
0563 1420937866 36.2287
0564 1420939086 36.2934
0565 1420940307 35.9912
0566 1420941528 36.4588
0567 1420942749 37.2705
0568 1420943969 36.4930
0569 1420945190 36.6144
0570 1420946411 36.8916
0571 1420947631 36.5791
0572 1420948852 36.2543
0573 1420950073 36.7177
0574 1420951293 36.4036
0575 1420952514 36.9631
0576 1420953735 35.9923
0577 1420954956 36.2174
0578 1420956176 36.2475
0579 1420957397 36.1704
0580 1420958618 36.3795
0581 1420959838 36.3866
0582 1420961059 36.3443
0583 1420962280 36.2104
0584 1420963500 35.8448
0585 1420964721 35.6576
0586 1420965942 36.1187
0587 1420967163 35.8013
0588 1420968383 36.1346
0589 1420969604 35.8117
0590 1420970825 35.7987
0591 1420972045 36.1412
0592 1420973266 35.9886
0593 1420974487 36.1269
0594 1420975708 36.2558
0595 1420976928 36.3716
0596 1420978149 36.4203
0597 1420979370 36.0863
0598 1420980590 35.8596
0599 1420981811 36.3274
0600 1420983032 36.4233
0601 1420984252 36.5805
0602 1420985473 36.9490
0603 1420986694 36.3482
0604 1420987915 36.4101
0605 1420989135 36.2494
0606 1420990356 36.9646
0607 1420991577 36.6681
0608 1420992797 36.1861
0609 1420994018 36.4484
0610 1420995239 35.9413
0611 1420996459 35.8507
0612 1420997680 36.3642
0613 1420998901 36.5893
0614 1421000122 36.1712
0615 1421001342 36.3959
0616 1421002563 36.2896
0617 1421003784 36.3561
0618 1421005004 35.7115
0619 1421006225 36.1613
0620 1421007446 36.2676
0621 1421008666 36.5823
0622 1421009887 37.3279
0623 1421011108 37.8448
0624 1421012329 37.3144
0625 1421013549 36.7551
0626 1421014770 36.2479
0627 1421015991 36.5112
0628 1421017211 36.6042
0629 1421018432 36.2984
0630 1421019653 36.0106
0631 1421020874 35.9232
0632 1421022094 36.1840
0633 1421023315 36.5906
0634 1421024536 36.2936
0635 1421025756 35.6570
0636 1421026977 36.0187
0637 1421028198 36.6015
0638 1421029418 35.9035
0639 1421030639 35.9845
0640 1421031860 36.5311
0641 1421033081 36.4196
0642 1421034301 36.3956
0643 1421035522 36.2555
0644 1421036743 36.3471
0645 1421037963 36.3996
0646 1421039184 36.5969
0647 1421040405 36.6275
0648 1421041625 36.3088
0649 1421042846 35.9635
0650 1421044067 35.9017
0651 1421045288 36.3574
0652 1421046508 36.0668
0653 1421047729 36.3749
0654 1421048950 36.1883
0655 1421050170 36.3801
0656 1421051391 36.5940
0657 1421052612 36.6811
0658 1421053833 36.6980
0659 1421055053 36.3708
0660 1421056274 36.8798
0661 1421057495 36.5505
0662 1421058715 36.6178
0663 1421059936 35.8948
0664 1421061157 36.3343
0665 1421062377 36.0079
0666 1421063598 36.3919
0667 1421064819 36.1731
0668 1421066040 36.3003
0669 1421067260 36.2741
0670 1421068481 36.8734
0671 1421069702 36.8347
0672 1421070922 36.8629
0673 1421072143 35.7868
0674 1421073364 36.4464
0675 1421074584 36.5002
0676 1421075805 37.4724
0677 1421077026 37.4535
0678 1421078247 38.4677
0679 1421079467 38.5931
0680 1421080688 36.9964
0681 1421081909 36.6060
0682 1421083129 36.7332
0683 1421084350 36.6411
0684 1421085571 36.4314
0685 1421086791 36.6211
0686 1421088012 36.6329
0687 1421089233 36.5277
0688 1421090454 36.6105
0689 1421091674 36.5685
0690 1421092895 36.6958
0691 1421094116 36.2624
0692 1421095336 36.3716
0693 1421096557 36.5177
0694 1421097778 36.1611
0695 1421098999 37.1398
0696 1421100219 36.9390
0697 1421101440 36.6666
0698 1421102661 36.7447
0699 1421103881 37.1062
0700 1421105102 37.0576
0701 1421106323 36.7563
0702 1421107543 36.8631
0703 1421108764 36.8413
0704 1421109985 37.4750
0705 1421111206 37.4200
0706 1421112426 37.0223
0707 1421113647 36.6228
0708 1421114868 36.6660
0709 1421116088 37.0925
0710 1421117309 36.8932
0711 1421118530 37.2494
0712 1421119750 36.6662
0713 1421120971 36.8876
0714 1421122192 36.9562
0715 1421123413 36.7050
0716 1421124633 36.6804
0717 1421125854 37.0164
0718 1421127075 37.3222
0719 1421128295 36.7711
0720 1421129516 37.3450
0721 1421130737 37.7069
0722 1421131958 37.6930
0723 1421133178 37.6036
0724 1421134399 37.3838
0725 1421135620 37.3844
0726 1421136840 37.2241
0727 1421138061 36.9791
0728 1421139282 37.6335
0729 1421140502 37.6579
0730 1421141723 37.8839
0731 1421142944 37.4969
0732 1421144165 37.6218
0733 1421145385 38.3852
0734 1421146606 38.6085
0735 1421147827 38.1173
0736 1421149047 37.6701
0737 1421150268 37.6828
0738 1421151489 37.8679
0739 1421152709 38.2845
0740 1421153930 38.1489
0741 1421155151 37.8197
0742 1421156372 37.8169
0743 1421157592 37.7471
0744 1421158813 37.8083
0745 1421160034 37.8563
0746 1421161254 37.8672
0747 1421162475 37.7286
0748 1421163696 38.4017
0749 1421164916 37.7298
0750 1421166137 38.0098
0751 1421167358 37.7722
0752 1421168579 37.8951
0753 1421169799 37.6046
0754 1421171020 37.9845
0755 1421172241 38.3813
0756 1421173461 38.2218
0757 1421174682 37.8717
0758 1421175903 38.2433
0759 1421177124 38.4404
0760 1421178344 38.0776
0761 1421179565 38.7698
0762 1421180786 38.1754
0763 1421182006 38.3294
0764 1421183227 38.4255
0765 1421184448 38.5054
0766 1421185668 38.3013
0767 1421186889 38.3508
0768 1421188110 38.6212
0769 1421189331 38.6504
0770 1421190551 37.9691
0771 1421191772 38.5625
0772 1421192993 38.5449
0773 1421194213 39.0145
0774 1421195434 38.6506
0775 1421196655 38.7827
0776 1421197875 38.6971
0777 1421199096 38.6587
0778 1421200317 38.0648
0779 1421201538 39.0132
0780 1421202758 38.5172
0781 1421203979 39.0784
0782 1421205200 39.3849
0783 1421206420 39.3668
0784 1421207641 38.9220
0785 1421208862 39.5680
0786 1421210083 39.8666
0787 1421211303 40.0211
0788 1421212524 40.9815
0789 1421213745 41.7710
0790 1421214965 41.0632
0791 1421216186 39.9978
0792 1421217407 39.3480
0793 1421218627 39.1718
0794 1421219848 39.1684
0795 1421221069 39.3970
0796 1421222290 39.3886
0797 1421223510 39.9129
0798 1421224731 39.4027
0799 1421225952 39.3216
0800 1421227172 39.5970
0801 1421228393 39.3319
0802 1421229614 39.3926
0803 1421230834 39.8866
0804 1421232055 39.4176
0805 1421233276 39.8531
0806 1421234497 40.0046
0807 1421235717 39.6778
0808 1421236938 40.0821
0809 1421238159 40.3407
0810 1421239379 40.1823
0811 1421240600 39.9752
0812 1421241821 39.9260
0813 1421243041 40.0363
0814 1421244262 40.0593
0815 1421245483 40.3110
0816 1421246704 39.7193
0817 1421247924 40.2383
0818 1421249145 39.7782
0819 1421250366 40.1651
0820 1421251586 40.4205
0821 1421252807 40.2667
0822 1421254028 40.6532
0823 1421255249 40.3998
0824 1421256469 40.3018
0825 1421257690 40.6171
0826 1421258911 40.6945
0827 1421260131 40.6201
0828 1421261352 40.3426
0829 1421262573 39.9905
0830 1421263793 40.6672
0831 1421265014 40.4253
0832 1421266235 40.7940
0833 1421267456 40.6611
0834 1421268676 40.9403
0835 1421269897 40.8019
0836 1421271118 40.8072
0837 1421272338 40.9973
0838 1421273559 41.2262
0839 1421274780 41.7490
0840 1421276000 41.4452
0841 1421277221 41.6472
0842 1421278442 41.5336
0843 1421279663 43.6348
0844 1421280883 44.7642
0845 1421282104 43.7915
0846 1421283325 43.2550
0847 1421284545 41.7640
0848 1421285766 41.5420
0849 1421286987 41.9038
0850 1421288208 41.6416
0851 1421289428 41.8423
0852 1421290649 41.2392
0853 1421291870 41.3053
0854 1421293090 41.4885
0855 1421294311 41.0978
0856 1421295532 41.3686
0857 1421296752 41.2488
0858 1421297973 41.6658
0859 1421299194 41.7047
0860 1421300415 41.7580
0861 1421301635 42.3074
0862 1421302856 41.9930
0863 1421304077 41.8645
0864 1421305297 42.4927
0865 1421306518 41.9134
0866 1421307739 42.2518
0867 1421308959 41.6493
0868 1421310180 41.8315
0869 1421311401 41.6936
0870 1421312622 42.9470
0871 1421313842 41.5506
0872 1421315063 41.8536
0873 1421316284 42.1600
0874 1421317504 42.8266
0875 1421318725 41.6488
0876 1421319946 42.1762
0877 1421321166 42.9196
0878 1421322387 42.4224
0879 1421323608 42.4211
0880 1421324829 42.4831
0881 1421326049 42.6414
0882 1421327270 42.2909
0883 1421328491 42.3586
0884 1421329711 42.4580
0885 1421330932 42.3293
0886 1421332153 42.2780
0887 1421333374 42.0427
0888 1421334594 42.5797
0889 1421335815 43.0858
0890 1421337036 43.2146
0891 1421338256 43.2599
0892 1421339477 43.1849
0893 1421340698 42.9368
0894 1421341918 43.3311
0895 1421343139 43.1755
0896 1421344360 43.9803
0897 1421345581 44.6737
0898 1421346801 46.6371
0899 1421348022 48.5055
0900 1421349243 48.1674
0901 1421350463 46.2205
0902 1421351684 43.9724
0903 1421352905 43.7582
0904 1421354125 42.9311
0905 1421355346 43.7217
0906 1421356567 43.7676
0907 1421357788 43.6939
0908 1421359008 43.8858
0909 1421360229 43.9696
0910 1421361450 43.1877
0911 1421362670 43.6025
0912 1421363891 43.5351
0913 1421365112 43.9911
0914 1421366333 43.4247
0915 1421367553 44.2829
0916 1421368774 44.1763
0917 1421369995 44.6500
0918 1421371215 44.0234
0919 1421372436 43.6081
0920 1421373657 44.1328
0921 1421374877 44.7318
0922 1421376098 44.2050
0923 1421377319 44.2099
0924 1421378540 44.3186
0925 1421379760 43.8958
0926 1421380981 44.1556
0927 1421382202 44.3062
0928 1421383422 43.3120
0929 1421384643 44.0826
0930 1421385864 43.5935
0931 1421387084 43.9645
0932 1421388305 44.3809
0933 1421389526 44.4277
0934 1421390747 44.4265
0935 1421391967 44.5200
0936 1421393188 44.4414
0937 1421394409 44.4622
0938 1421395629 44.3701
0939 1421396850 43.7353
0940 1421398071 43.9415
0941 1421399291 44.3554
0942 1421400512 44.3251
0943 1421401733 44.1349
0944 1421402954 44.0938
0945 1421404174 44.5419
0946 1421405395 44.4878
0947 1421406616 44.8543
0948 1421407836 44.6493
0949 1421409057 44.7413
0950 1421410278 45.0420
0951 1421411499 44.8345
0952 1421412719 44.6610
0953 1421413940 45.4767
0954 1421415161 46.1056
0955 1421416381 46.4262
0956 1421417602 45.7277
0957 1421418823 45.1928
0958 1421420043 44.9728
0959 1421421264 45.4086
0960 1421422485 44.6340
0961 1421423706 45.6853
0962 1421424926 45.4113
0963 1421426147 45.6079
0964 1421427368 44.9141
0965 1421428588 45.2893
0966 1421429809 45.1540
0967 1421431030 44.5059
0968 1421432250 44.8551
0969 1421433471 44.5020
0970 1421434692 45.1150
0971 1421435913 44.7759
0972 1421437133 45.5243
0973 1421438354 45.4013
0974 1421439575 45.6681
0975 1421440795 45.5360
0976 1421442016 45.5969
0977 1421443237 45.1751
0978 1421444458 46.0101
0979 1421445678 45.4867
0980 1421446899 45.0638
0981 1421448120 46.0746
0982 1421449340 45.5888
0983 1421450561 45.1515
0984 1421451782 45.1363
0985 1421453002 45.4377
0986 1421454223 44.7200
0987 1421455444 45.5053
0988 1421456665 45.6918
0989 1421457885 45.0734
0990 1421459106 46.0048
0991 1421460327 45.2343
0992 1421461547 45.4961
0993 1421462768 45.5696
0994 1421463989 45.6383
0995 1421465209 45.4636
0996 1421466430 45.7743
0997 1421467651 45.9505
0998 1421468872 45.8145
0999 1421470092 45.4157
1000 1421471313 46.0541
1001 1421472534 45.6794
1002 1421473754 45.3347
1003 1421474975 45.9656
1004 1421476196 46.0963
1005 1421477416 46.1911
1006 1421478637 46.6647
1007 1421479858 46.7773
1008 1421481079 46.1459
1009 1421482299 46.9181
1010 1421483520 47.5083
1011 1421484741 47.4123
1012 1421485961 47.1768
1013 1421487182 46.5373
1014 1421488403 46.8322
1015 1421489624 47.4679
1016 1421490844 47.5732
1017 1421492065 48.0710
1018 1421493286 47.5543
1019 1421494506 47.8470
1020 1421495727 49.6400
1021 1421496948 50.5887
1022 1421498168 51.9352
1023 1421499389 51.3500
1024 1421500610 47.5544
1025 1421501831 51.9739
1026 1421503051 51.4109
1027 1421504272 49.5160
1028 1421505493 48.5676
1029 1421506713 48.7704
1030 1421507934 47.7658
1031 1421509155 47.7680
1032 1421510375 46.6246
1033 1421511596 46.6802
1034 1421512817 46.1907
1035 1421514038 46.2767
1036 1421515258 46.8834
1037 1421516479 47.2063
1038 1421517700 46.3543
1039 1421518920 46.2480
1040 1421520141 45.9550
1041 1421521362 46.2707
1042 1421522583 46.0719
1043 1421523803 45.8630
1044 1421525024 45.9512
1045 1421526245 45.8417
1046 1421527465 45.9868
1047 1421528686 45.5732
1048 1421529907 44.9625
1049 1421531127 45.2952
1050 1421532348 45.1322
1051 1421533569 46.0548
1052 1421534790 45.9109
1053 1421536010 45.6532
1054 1421537231 45.7033
1055 1421538452 45.6720
1056 1421539672 45.3747
1057 1421540893 45.8406
1058 1421542114 45.4755
1059 1421543334 45.1232
1060 1421544555 45.2413
1061 1421545776 45.4157
1062 1421546997 46.0173
1063 1421548217 45.9089
1064 1421549438 45.4893
1065 1421550659 45.2181
1066 1421551879 45.3958
1067 1421553100 45.4231
1068 1421554321 45.5033
1069 1421555541 45.2587
1070 1421556762 45.2473
1071 1421557983 45.0099
1072 1421559204 45.1780
1073 1421560424 44.9462
1074 1421561645 45.2124
1075 1421562866 45.4926
1076 1421564086 44.9178
1077 1421565307 44.9110
1078 1421566528 45.2461
1079 1421567749 44.9435
1080 1421568969 44.8418
1081 1421570190 45.1833
1082 1421571411 45.3086
1083 1421572631 45.0888
1084 1421573852 45.4784
1085 1421575073 44.8513
1086 1421576293 45.1061
1087 1421577514 44.9181
1088 1421578735 45.2008
1089 1421579956 45.4145
1090 1421581176 44.9840
1091 1421582397 45.1549
1092 1421583618 45.0981
1093 1421584838 44.9778
1094 1421586059 44.5542
1095 1421587280 44.8632
1096 1421588500 44.6567
1097 1421589721 44.5612
1098 1421590942 44.3402
1099 1421592163 44.4154
1100 1421593383 44.2512
1101 1421594604 44.3938
1102 1421595825 44.0906
1103 1421597045 44.8143
1104 1421598266 45.2788
1105 1421599487 44.4533
1106 1421600708 44.7689
1107 1421601928 44.5139
1108 1421603149 44.4888
1109 1421604370 44.8724
1110 1421605590 44.3748
1111 1421606811 44.5298
1112 1421608032 44.8600
1113 1421609252 44.9809
1114 1421610473 44.4219
1115 1421611694 44.6522
1116 1421612915 44.5870
1117 1421614135 45.0315
1118 1421615356 44.8876
1119 1421616577 44.4614
1120 1421617797 44.1295
1121 1421619018 43.3706
1122 1421620239 44.1454
1123 1421621459 45.0062
1124 1421622680 44.1806
1125 1421623901 43.8334
1126 1421625122 44.6504
1127 1421626342 43.9789
1128 1421627563 43.6172
1129 1421628784 44.1969
1130 1421630004 44.0572
1131 1421631225 43.6461
1132 1421632446 43.9704
1133 1421633666 44.8251
1134 1421634887 44.1794
1135 1421636108 43.8096
1136 1421637329 43.9368
1137 1421638549 44.1786
1138 1421639770 43.3113
1139 1421640991 43.8818
1140 1421642211 43.6281
1141 1421643432 43.1583
1142 1421644653 43.8127
1143 1421645874 43.4911
1144 1421647094 43.9759
1145 1421648315 43.9605
1146 1421649536 43.7540
1147 1421650756 43.5347
1148 1421651977 43.7947
1149 1421653198 43.5604
1150 1421654418 43.3394
1151 1421655639 43.5796
1152 1421656860 43.2428
1153 1421658081 42.8666
1154 1421659301 43.2310
1155 1421660522 42.9815
1156 1421661743 42.8839
1157 1421662963 42.9776
1158 1421664184 43.0160
1159 1421665405 43.1348
1160 1421666625 42.9930
1161 1421667846 43.5132
1162 1421669067 42.8260
1163 1421670288 43.2059
1164 1421671508 43.0504
1165 1421672729 42.3432
1166 1421673950 42.8269
1167 1421675170 43.1095
1168 1421676391 42.7012
1169 1421677612 42.5233
1170 1421678833 42.5766
1171 1421680053 42.6752
1172 1421681274 42.5713
1173 1421682495 42.3275
1174 1421683715 42.5448
1175 1421684936 42.3794
1176 1421686157 42.6061
1177 1421687377 42.8817
1178 1421688598 42.8575
1179 1421689819 42.4711
1180 1421691040 42.0150
1181 1421692260 41.8618
1182 1421693481 43.0505
1183 1421694702 42.1830
1184 1421695922 42.1564
1185 1421697143 42.2356
1186 1421698364 41.8498
1187 1421699584 41.3869
1188 1421700805 41.5371
1189 1421702026 42.3533
1190 1421703247 41.8400
1191 1421704467 42.4828
1192 1421705688 41.6998
1193 1421706909 42.1350
1194 1421708129 41.8339
1195 1421709350 42.3002
1196 1421710571 41.5732
1197 1421711791 42.2981
1198 1421713012 41.7582
1199 1421714233 42.2718
1200 1421715454 41.6753
1201 1421716674 41.6655
1202 1421717895 41.5136
1203 1421719116 41.7214
1204 1421720336 41.4980
1205 1421721557 42.2464
1206 1421722778 41.4202
1207 1421723999 40.8723
1208 1421725219 41.2179
1209 1421726440 40.6673
1210 1421727661 41.5848
1211 1421728881 41.4192
1212 1421730102 41.3469
1213 1421731323 41.1794
1214 1421732543 41.3459
1215 1421733764 41.1456
1216 1421734985 41.4106
1217 1421736206 40.2310
1218 1421737426 40.7667
1219 1421738647 40.8594
1220 1421739868 41.2160
1221 1421741088 41.2957
1222 1421742309 40.9915
1223 1421743530 40.8862
1224 1421744750 41.3890
1225 1421745971 40.9001
1226 1421747192 41.4611
1227 1421748413 41.0246
1228 1421749633 40.4760
1229 1421750854 41.3578
1230 1421752075 40.7845
1231 1421753295 40.5529
1232 1421754516 40.9501
1233 1421755737 41.1661
1234 1421756958 40.7098
1235 1421758178 40.7835
1236 1421759399 41.1125
1237 1421760620 40.7332
1238 1421761840 40.8649
1239 1421763061 40.3939
1240 1421764282 40.3177
1241 1421765502 40.0723
1242 1421766723 40.4543
1243 1421767944 40.1546
1244 1421769165 40.0956
1245 1421770385 39.9877
1246 1421771606 40.0435
1247 1421772827 40.1712
1248 1421774047 40.5498
1249 1421775268 40.2976
1250 1421776489 40.1283
1251 1421777709 40.0979
1252 1421778930 40.1474
1253 1421780151 39.8537
1254 1421781372 40.0797
1255 1421782592 40.2604
1256 1421783813 40.2365
1257 1421785034 39.8014
1258 1421786254 40.2101
1259 1421787475 40.2284
1260 1421788696 39.8457
1261 1421789916 39.5920
1262 1421791137 39.5734
1263 1421792358 39.8874
1264 1421793579 39.8753
1265 1421794799 39.9365
1266 1421796020 40.2331
1267 1421797241 39.1918
1268 1421798461 39.6651
1269 1421799682 39.6184
1270 1421800903 39.3509
1271 1421802124 39.1916
1272 1421803344 39.7118
1273 1421804565 40.0266
1274 1421805786 43.4239
1275 1421807006 40.8870
1276 1421808227 39.4848
1277 1421809448 39.5643
1278 1421810668 39.7015
1279 1421811889 39.5060
1280 1421813110 39.6064
1281 1421814331 38.9058
1282 1421815551 40.0717
1283 1421816772 39.8371
1284 1421817993 39.4421
1285 1421819213 39.3464
1286 1421820434 39.6584
1287 1421821655 39.3941
1288 1421822875 39.2616
1289 1421824096 39.0932
1290 1421825317 39.0579
1291 1421826538 39.1788
1292 1421827758 38.8105
1293 1421828979 39.4814
1294 1421830200 39.3653
1295 1421831420 38.7851
1296 1421832641 38.9294
1297 1421833862 38.4917
1298 1421835083 38.5456
1299 1421836303 38.4129
1300 1421837524 38.5384
1301 1421838745 38.9126
1302 1421839965 38.6555
1303 1421841186 38.3528
1304 1421842407 38.7872
1305 1421843627 38.5009
1306 1421844848 38.5796
1307 1421846069 38.7181
1308 1421847290 38.6627
1309 1421848510 38.0045
1310 1421849731 38.6686
1311 1421850952 38.7339
1312 1421852172 38.9631
1313 1421853393 38.8708
1314 1421854614 38.4844
1315 1421855834 38.9116
1316 1421857055 39.0064
1317 1421858276 38.5930
1318 1421859497 38.6282
1319 1421860717 38.7015
1320 1421861938 38.7194
1321 1421863159 39.0534
1322 1421864379 40.0286
1323 1421865600 40.1525
1324 1421866821 39.8097
1325 1421868041 39.2815
1326 1421869262 38.9438
1327 1421870483 38.7865
1328 1421871704 37.8598
1329 1421872924 37.5481
1330 1421874145 38.0341
1331 1421875366 37.7268
1332 1421876586 38.3532
1333 1421877807 38.8356
1334 1421879028 38.3247
1335 1421880249 38.7084
1336 1421881469 38.1059
1337 1421882690 38.5366
1338 1421883911 37.8920
1339 1421885131 37.7106
1340 1421886352 38.2802
1341 1421887573 38.4428
1342 1421888793 37.7403
1343 1421890014 37.6281
1344 1421891235 38.4151
1345 1421892456 37.9890
1346 1421893676 38.2532
1347 1421894897 37.1471
1348 1421896118 37.8055
1349 1421897338 38.1303
1350 1421898559 37.7268
1351 1421899780 37.3226
1352 1421901000 37.5718
1353 1421902221 37.7213
1354 1421903442 37.2579
1355 1421904663 37.4497
1356 1421905883 37.4019
1357 1421907104 38.3634
1358 1421908325 38.3322
1359 1421909545 38.1243
1360 1421910766 37.8987
1361 1421911987 37.3812
1362 1421913208 37.8862
1363 1421914428 37.6834
1364 1421915649 37.8692
1365 1421916870 37.6499
1366 1421918090 37.5480
1367 1421919311 37.3319
1368 1421920532 37.8498
1369 1421921752 37.8267
1370 1421922973 38.2728
1371 1421924194 38.2572
1372 1421925415 37.7062
1373 1421926635 37.9946
1374 1421927856 37.5610
1375 1421929077 37.9517
1376 1421930297 37.8298
1377 1421931518 37.7885
1378 1421932739 37.4714
1379 1421933959 37.6510
1380 1421935180 37.6437
1381 1421936401 37.6875
1382 1421937622 37.2823
1383 1421938842 37.7611
1384 1421940063 38.0915
1385 1421941284 37.6894
1386 1421942504 37.5651
1387 1421943725 37.6612
1388 1421944946 37.3188
1389 1421946166 38.1087
1390 1421947387 38.1745
1391 1421948608 37.9122
1392 1421949829 37.9068
1393 1421951049 36.9301
1394 1421952270 37.2383
1395 1421953491 37.5917
1396 1421954711 37.7611
1397 1421955932 37.6096
1398 1421957153 37.3603
1399 1421958374 38.2349
1400 1421959594 38.2700
1401 1421960815 37.7106
1402 1421962036 38.1930
1403 1421963256 37.9830
1404 1421964477 37.6333
1405 1421965698 37.1732
1406 1421966918 37.0441
1407 1421968139 37.1154
1408 1421969360 37.3090
1409 1421970581 37.6790
1410 1421971801 37.2949
1411 1421973022 37.8093
1412 1421974243 37.3599
1413 1421975463 38.2012
1414 1421976684 38.6815
1415 1421977905 38.4474
1416 1421979125 38.0129
1417 1421980346 37.2475
1418 1421981567 37.7535
1419 1421982788 37.3953
1420 1421984008 37.6938
1421 1421985229 37.4238
1422 1421986450 37.5437
1423 1421987670 37.7066
1424 1421988891 37.7814
1425 1421990112 37.8758
1426 1421991333 37.5165
1427 1421992553 37.4954
1428 1421993774 37.5475
1429 1421994995 37.1326
1430 1421996215 38.1588
1431 1421997436 37.7103
1432 1421998657 37.3829
1433 1421999877 37.6889
1434 1422001098 38.5742
1435 1422002319 113.2067
1436 1422003540 202.6919
1437 1422004760 48.8038
1438 1422005981 37.8505
1439 1422007202 37.2539
1440 1422008422 37.8094
1441 1422009643 37.3883
1442 1422010864 38.3998
1443 1422012084 37.9189
1444 1422013305 37.6169
1445 1422014526 37.5291
1446 1422015747 38.0354
1447 1422016967 37.5941
1448 1422018188 37.8173
1449 1422019409 38.2707
1450 1422020629 37.7376
1451 1422021850 37.5285
1452 1422023071 37.6203
1453 1422024291 37.8682
1454 1422025512 37.9926
1455 1422026733 37.6119
1456 1422027954 37.5207
1457 1422029174 38.0336
1458 1422030395 37.6738
1459 1422031616 37.6698
1460 1422032836 37.1028
1461 1422034057 37.6574
1462 1422035278 37.6564
1463 1422036499 37.2450
1464 1422037719 38.0451
1465 1422038940 37.6751
1466 1422040161 37.5280
1467 1422041381 38.2135
1468 1422042602 38.2902
1469 1422043823 38.2492
1470 1422045043 37.9959
1471 1422046264 38.7126
1472 1422047485 37.7043
1473 1422048706 38.2537
1474 1422049926 38.3078
1475 1422051147 38.2493
1476 1422052368 37.8198
1477 1422053588 37.9225
1478 1422054809 37.6382
1479 1422056030 38.1734
1480 1422057250 37.7515
1481 1422058471 37.6716
1482 1422059692 37.7899
1483 1422060913 38.1404
1484 1422062133 37.9331
1485 1422063354 38.2443
1486 1422064575 37.7293
1487 1422065795 38.0573
1488 1422067016 37.9006
1489 1422068237 38.2971
1490 1422069458 37.8687
1491 1422070678 38.6158
1492 1422071899 38.6100
1493 1422073120 38.0535
1494 1422074340 37.9325
1495 1422075561 38.1605
1496 1422076782 38.0687
1497 1422078002 37.9466
1498 1422079223 38.2366
1499 1422080444 37.7653
1500 1422081665 37.9107
1501 1422082885 37.6466
1502 1422084106 38.1637
1503 1422085327 38.0827
1504 1422086547 38.1647
1505 1422087768 38.1344
1506 1422088989 38.1561
1507 1422090209 38.1762
1508 1422091430 38.1687
1509 1422092651 38.0904
1510 1422093872 37.9912
1511 1422095092 38.4060
1512 1422096313 38.0133
1513 1422097534 37.5051
1514 1422098754 38.6781
1515 1422099975 38.3560
1516 1422101196 38.2493
1517 1422102416 37.9465
1518 1422103637 38.5127
1519 1422104858 39.2807
1520 1422106079 38.5681
1521 1422107299 38.7264
1522 1422108520 38.2969
1523 1422109741 38.2289
1524 1422110961 39.8913
1525 1422112182 39.4136
1526 1422113403 38.4827
1527 1422114624 37.9455
1528 1422115844 37.9206
1529 1422117065 38.7517
1530 1422118286 38.5004
1531 1422119506 38.5045
1532 1422120727 38.4003
1533 1422121948 37.9291
1534 1422123168 38.0290
1535 1422124389 38.5608
1536 1422125610 38.6869
1537 1422126831 38.5090
1538 1422128051 38.5666
1539 1422129272 38.0553
1540 1422130493 38.4457
1541 1422131713 38.2384
1542 1422132934 38.2820
1543 1422134155 38.2631
1544 1422135375 38.1725
1545 1422136596 38.2924
1546 1422137817 38.5128
1547 1422139038 38.4735
1548 1422140258 38.1989
1549 1422141479 38.7164
1550 1422142700 38.6662
1551 1422143920 38.9240
1552 1422145141 38.1097
1553 1422146362 38.0030
1554 1422147583 38.5619
1555 1422148803 38.7856
1556 1422150024 38.6609
1557 1422151245 38.6285
1558 1422152465 38.3752
1559 1422153686 38.8131
1560 1422154907 38.8280
1561 1422156127 39.1774
1562 1422157348 38.8727
1563 1422158569 38.5466
1564 1422159790 38.2009
1565 1422161010 38.7499
1566 1422162231 38.7938
1567 1422163452 38.6638
1568 1422164672 38.8813
1569 1422165893 38.6624
1570 1422167114 39.0129
1571 1422168334 38.4765
1572 1422169555 38.5666
1573 1422170776 38.3832
1574 1422171997 38.4905
1575 1422173217 38.6960
1576 1422174438 38.7028
1577 1422175659 39.2127
1578 1422176879 39.2384
1579 1422178100 39.0488
1580 1422179321 39.0490
1581 1422180541 39.4261
1582 1422181762 38.6650
1583 1422182983 38.8968
1584 1422184204 39.2860
1585 1422185424 38.6166
1586 1422186645 38.5842
1587 1422187866 38.6026
1588 1422189086 38.8732
1589 1422190307 38.5490
1590 1422191528 38.7998
1591 1422192749 38.9763
1592 1422193969 38.7374
1593 1422195190 38.6888
1594 1422196411 38.5967
1595 1422197631 38.9760
1596 1422198852 39.0611
1597 1422200073 41.7018
1598 1422201293 40.3275
1599 1422202514 39.0489
1600 1422203735 39.0444
1601 1422204956 38.8071
1602 1422206176 38.9462
1603 1422207397 38.0711
1604 1422208618 38.4369
1605 1422209838 38.6762
1606 1422211059 37.9876
1607 1422212280 38.5520
1608 1422213500 38.6825
1609 1422214721 38.7147
1610 1422215942 38.2035
1611 1422217163 38.4408
1612 1422218383 38.2294
1613 1422219604 38.1163
1614 1422220825 38.5518
1615 1422222045 38.3533
1616 1422223266 38.2231
1617 1422224487 38.7228
1618 1422225708 38.5366
1619 1422226928 38.5098
1620 1422228149 37.8856
1621 1422229370 38.2106
1622 1422230590 38.0747
1623 1422231811 37.5723
1624 1422233032 38.6429
1625 1422234252 38.3044
1626 1422235473 38.6253
1627 1422236694 38.5068
1628 1422237915 37.9421
1629 1422239135 37.8631
1630 1422240356 38.2306
1631 1422241577 38.5545
1632 1422242797 38.4955
1633 1422244018 38.3413
1634 1422245239 38.1709
1635 1422246459 38.5432
1636 1422247680 37.8835
1637 1422248901 38.2571
1638 1422250122 38.0739
1639 1422251342 38.3128
1640 1422252563 37.9881
1641 1422253784 37.7696
1642 1422255004 37.9155
1643 1422256225 37.9342
1644 1422257446 37.4746
1645 1422258666 37.6703
1646 1422259887 38.0103
1647 1422261108 38.1708
1648 1422262329 38.3310
1649 1422263549 37.8510
1650 1422264770 38.1283
1651 1422265991 37.5804
1652 1422267211 37.4921
1653 1422268432 37.7960
1654 1422269653 37.7504
1655 1422270874 37.0485
1656 1422272094 37.4959
1657 1422273315 37.9968
1658 1422274536 37.7723
1659 1422275756 37.4271
1660 1422276977 37.3144
1661 1422278198 38.0121
1662 1422279418 37.7101
1663 1422280639 37.7970
1664 1422281860 37.8141
1665 1422283081 37.2542
1666 1422284301 37.2688
1667 1422285522 37.0936
1668 1422286743 37.1569
1669 1422287963 36.6346
1670 1422289184 36.9326
1671 1422290405 37.3041
1672 1422291625 37.4426
1673 1422292846 37.4019
1674 1422294067 37.2920
1675 1422295288 36.6385
1676 1422296508 37.0569
1677 1422297729 37.5098
1678 1422298950 36.7629
1679 1422300170 36.8050
1680 1422301391 36.9858
1681 1422302612 37.2598
1682 1422303833 36.6888
1683 1422305053 36.5257
1684 1422306274 36.5150
1685 1422307495 36.6160
1686 1422308715 36.4574
1687 1422309936 36.7576
1688 1422311157 36.1174
1689 1422312377 36.0750
1690 1422313598 36.4122
1691 1422314819 35.7748
1692 1422316040 35.5997
1693 1422317260 36.1588
1694 1422318481 36.6345
1695 1422319702 36.8723
1696 1422320922 36.4322
1697 1422322143 35.5729
1698 1422323364 36.2655
1699 1422324584 35.8589
1700 1422325805 35.8186
1701 1422327026 35.9243
1702 1422328247 35.8855
1703 1422329467 36.0755
1704 1422330688 35.9133
1705 1422331909 35.9019
1706 1422333129 35.2848
1707 1422334350 35.2997
1708 1422335571 35.4376
1709 1422336791 35.6469
1710 1422338012 35.1738
1711 1422339233 35.1821
1712 1422340454 35.1746
1713 1422341674 34.7286
1714 1422342895 35.0285
1715 1422344116 35.1064
1716 1422345336 35.2429
1717 1422346557 35.2171
1718 1422347778 34.9331
1719 1422348999 35.3074
1720 1422350219 34.3775
1721 1422351440 34.3008
1722 1422352661 34.5555
1723 1422353881 34.9614
1724 1422355102 34.3569
1725 1422356323 33.9652
1726 1422357543 33.9253
1727 1422358764 33.8956
1728 1422359985 33.6540
1729 1422361206 33.8120
1730 1422362426 34.3975
1731 1422363647 33.8305
1732 1422364868 33.9406
1733 1422366088 33.9596
1734 1422367309 33.6507
1735 1422368530 33.4554
1736 1422369750 33.7504
1737 1422370971 33.1099
1738 1422372192 33.3809
1739 1422373413 33.5699
1740 1422374633 33.0704
1741 1422375854 33.2724
1742 1422377075 33.0967
1743 1422378295 32.8181
1744 1422379516 33.0705
1745 1422380737 32.9268
1746 1422381958 32.8089
1747 1422383178 33.3048
1748 1422384399 32.9698
1749 1422385620 32.3269
1750 1422386840 32.4777
1751 1422388061 32.3988
1752 1422389282 32.7579
1753 1422390502 32.3209
1754 1422391723 31.8903
1755 1422392944 31.7819
1756 1422394165 31.8427
1757 1422395385 31.9586
1758 1422396606 31.6013
1759 1422397827 32.4129
1760 1422399047 31.6230
1761 1422400268 31.3809
1762 1422401489 31.5839
1763 1422402709 31.5362
1764 1422403930 31.3892
1765 1422405151 31.5705
1766 1422406372 31.4864
1767 1422407592 31.8939
1768 1422408813 30.8175
1769 1422410034 30.9464
1770 1422411254 30.6985
1771 1422412475 30.6910
1772 1422413696 30.6813
1773 1422414916 30.4786
1774 1422416137 30.1695
1775 1422417358 30.6908
1776 1422418579 30.5447
1777 1422419799 29.6669
1778 1422421020 29.8524
1779 1422422241 29.8839
1780 1422423461 29.9214
1781 1422424682 29.6913
1782 1422425903 29.9656
1783 1422427124 29.6877
1784 1422428344 29.8592
1785 1422429565 29.6669
1786 1422430786 29.3379
1787 1422432006 29.4799
1788 1422433227 28.9551
1789 1422434448 28.4515
1790 1422435668 28.6775
1791 1422436889 29.0613
1792 1422438110 28.3691
1793 1422439331 29.0174
1794 1422440551 28.8475
1795 1422441772 28.4998
1796 1422442993 28.6106
1797 1422444213 28.5264
1798 1422445434 28.1308
1799 1422446655 27.4932
1800 1422447875 27.8021
1801 1422449096 27.9488
1802 1422450317 27.6431
1803 1422451538 27.5089
1804 1422452758 27.1480
1805 1422453979 27.2582
1806 1422455200 27.2630
1807 1422456420 27.1493
1808 1422457641 26.8355
1809 1422458862 26.8976
1810 1422460083 26.6380
1811 1422461303 26.6734
1812 1422462524 26.6875
1813 1422463745 26.6238
1814 1422464965 26.2559
1815 1422466186 26.0129
1816 1422467407 25.9411
1817 1422468627 26.0007
1818 1422469848 25.9641
1819 1422471069 26.2589
1820 1422472290 26.0206
1821 1422473510 25.3787
1822 1422474731 25.4830
1823 1422475952 25.5791
1824 1422477172 25.2399
1825 1422478393 25.2936
1826 1422479614 25.2689
1827 1422480834 25.5132
1828 1422482055 24.9142
1829 1422483276 24.8707
1830 1422484497 24.8869
1831 1422485717 24.4597
1832 1422486938 24.2668
1833 1422488159 24.4625
1834 1422489379 24.5122
1835 1422490600 24.5872
1836 1422491821 24.1939
1837 1422493041 23.7923
1838 1422494262 24.0103
1839 1422495483 24.1088
1840 1422496704 23.7694
1841 1422497924 23.5706
1842 1422499145 23.5077
1843 1422500366 23.3479
1844 1422501586 23.4153
1845 1422502807 23.3395
1846 1422504028 23.3007
1847 1422505249 22.8256
1848 1422506469 23.2299
1849 1422507690 22.6178
1850 1422508911 22.1964
1851 1422510131 22.4668
1852 1422511352 22.1209
1853 1422512573 22.2550
1854 1422513793 21.9096
1855 1422515014 22.0743
1856 1422516235 21.9894
1857 1422517456 21.6043
1858 1422518676 21.5187
1859 1422519897 21.6743
1860 1422521118 21.3881
1861 1422522338 21.4669
1862 1422523559 21.1758
1863 1422524780 20.9320
1864 1422526000 21.1181
1865 1422527221 20.6564
1866 1422528442 20.5968
1867 1422529663 20.5879
1868 1422530883 20.3042
1869 1422532104 20.4968
1870 1422533325 20.2727
1871 1422534545 20.3522
1872 1422535766 20.1617
1873 1422536987 19.9707
1874 1422538208 19.7691
1875 1422539428 19.4736
1876 1422540649 19.6104
1877 1422541870 19.1772
1878 1422543090 19.4593
1879 1422544311 19.3601
1880 1422545532 19.3359
1881 1422546752 19.1722
1882 1422547973 19.0793
1883 1422549194 18.9656
1884 1422550415 18.7570
1885 1422551635 18.5993
1886 1422552856 18.7688
1887 1422554077 18.5044
1888 1422555297 18.4409
1889 1422556518 18.2924
1890 1422557739 18.4822
1891 1422558959 18.1961
1892 1422560180 17.7944
1893 1422561401 17.7586
1894 1422562622 17.5276
1895 1422563842 17.4404
1896 1422565063 17.6432
1897 1422566284 17.6152
1898 1422567504 17.2453
1899 1422568725 17.2226
1900 1422569946 16.8941
1901 1422571166 17.0378
1902 1422572387 17.0192
1903 1422573608 16.7684
1904 1422574829 16.6208
1905 1422576049 16.7246
1906 1422577270 16.4982
1907 1422578491 16.3471
1908 1422579711 16.3213
1909 1422580932 16.1414
1910 1422582153 15.8962
1911 1422583374 15.9917
1912 1422584594 16.1315
1913 1422585815 15.6998
1914 1422587036 15.6629
1915 1422588256 15.7040
1916 1422589477 15.5071
1917 1422590698 15.5446
1918 1422591918 15.3269
1919 1422593139 15.2028
1920 1422594360 15.1312
1921 1422595581 14.8908
1922 1422596801 14.7470
1923 1422598022 14.8710
1924 1422599243 14.7123
1925 1422600463 14.4867
1926 1422601684 14.7766
1927 1422602905 14.4568
1928 1422604125 14.4149
1929 1422605346 14.4278
1930 1422606567 14.0517
1931 1422607788 13.9610
1932 1422609008 13.8399
1933 1422610229 13.8028
1934 1422611450 13.7074
1935 1422612670 13.6000
1936 1422613891 13.4787
1937 1422615112 13.4827
1938 1422616333 13.2609
1939 1422617553 13.3783
1940 1422618774 13.3809
1941 1422619995 13.3019
1942 1422621215 13.0227
1943 1422622436 13.0382
1944 1422623657 12.8538
1945 1422624877 12.5791
1946 1422626098 12.9111
1947 1422627319 12.6569
1948 1422628540 12.5542
1949 1422629760 12.4378
1950 1422630981 12.3303
1951 1422632202 12.1325
1952 1422633422 12.3056
1953 1422634643 12.1952
1954 1422635864 12.2047
1955 1422637084 12.0115
1956 1422638305 11.8035
1957 1422639526 11.7432
1958 1422640747 11.7561
1959 1422641967 11.5095
1960 1422643188 11.5119
1961 1422644409 11.7204
1962 1422645629 11.5785
1963 1422646850 11.3200
1964 1422648071 11.2501
1965 1422649291 11.1938
1966 1422650512 11.2223
1967 1422651733 10.9556
1968 1422652954 10.9445
1969 1422654174 10.9545
1970 1422655395 10.6930
1971 1422656616 10.7582
1972 1422657836 10.6397
1973 1422659057 10.5509
1974 1422660278 10.5247
1975 1422661499 10.4406
1976 1422662719 10.3525
1977 1422663940 10.3826
1978 1422665161 10.3541
1979 1422666381 10.3104
1980 1422667602 10.1326
1981 1422668823 10.0334
1982 1422670043 10.0096
1983 1422671264 10.0055
1984 1422672485 9.9368
1985 1422673706 9.8477
1986 1422674926 9.8831
1987 1422676147 9.8143
1988 1422677368 9.8655
1989 1422678588 9.6655
1990 1422679809 9.7173
1991 1422681030 9.5353
1992 1422682250 9.4845
1993 1422683471 9.3886
1994 1422684692 9.4281
1995 1422685913 9.4839
1996 1422687133 9.2913
1997 1422688354 9.3509
1998 1422689575 9.2970
1999 1422690795 9.1706
2000 1422692016 9.1546
2001 1422693237 9.0077
2002 1422694458 8.9566
2003 1422695678 9.0157
2004 1422696899 9.0616
2005 1422698120 8.9604
2006 1422699340 9.0045
2007 1422700561 9.1980
2008 1422701782 8.9039
2009 1422703002 8.8320
2010 1422704223 8.7066
2011 1422705444 8.6610
2012 1422706665 8.6595
2013 1422707885 8.6364
2014 1422709106 8.6149
2015 1422710327 8.4807
2016 1422711547 8.4304
2017 1422712768 8.4860
2018 1422713989 8.3432
2019 1422715209 8.3717
2020 1422716430 8.3767
2021 1422717651 8.4499
2022 1422718872 8.3455
2023 1422720092 8.1961
2024 1422721313 8.2772
2025 1422722534 8.3241
2026 1422723754 8.1604
2027 1422724975 8.2286
2028 1422726196 8.2053
2029 1422727416 8.2176
2030 1422728637 8.2245
2031 1422729858 8.1378
2032 1422731079 8.0852
2033 1422732299 7.9622
2034 1422733520 8.0667
2035 1422734741 8.0485
2036 1422735961 7.9479
2037 1422737182 7.9128
2038 1422738403 8.0152
2039 1422739624 8.0273
2040 1422740844 8.0957
2041 1422742065 7.9347
2042 1422743286 7.9506
2043 1422744506 8.0129
2044 1422745727 7.9531
2045 1422746948 8.1478
2046 1422748168 8.0453
2047 1422749389 8.2857
