# File: 20-06-07T194645.ast
# NOTEA     = None Attached.  RTLSDR Dongle Test
# NOTEB     = Spectral Integration
# OBSERVER  = Science Aficionado
# DEVICE    = rtl=0,bias=1
# DATADIR   = ../data/
# SITE      = None Attached.  RTLSDR Dongle Test
# CITY      = Seattle
# REGION    = Washington
# COUNTRY   = US
# TELTYPE   = UW CSE 490W Dish
# FRAME     = TOPO
# GAIN1     = 49.0
# GAIN2     = 11.0
# GAIN3     = 11.0
# GAIN4     = 0.0
# Count     = 2500
# CenterFreq= 1421500000.0
# Bandwidth = 2500000.0
# Duration  = 41.938411
# DeltaX    = 5859.375
# TSYS      = 200.0
# TRX       = 100.0
# TRMS      = 2.0
# TINT      = 1.0
# KPERC     = 100.0
# GAINFACT  = 1.0
# BUNIT     = Counts
# NCHAN     = 2048
# NSPEC     = 1
# NTIME     = 0
# NSAMPLES  = 0
# EPEAK     = 4.10875183718
# ERMS      = 0.995973393526
# EMJD      = 58568.808999981004 
# REFCHAN   = 1024.0
# REFSAMPL  = 256.0
# NAVE      = 50
# NMEDIAN   = 1024
# Fft_rate  = 5000
# UTC       = 2020-06-07 19:46:45.266952
# SECONDS   =       0.0000000000 
# LST       = 09:02:39.470
# AZ        = 180.0
# EL        = 90.0
# TELLON    = -57:41:09.900
# TELLAT    = +47:39:13.800
# RA        = 08:59:54.090
# DEC       = +47:48:40.100
# GALLON    = 171:48:28.60
# GALLAT    = +40:57:57.10
# ALT_SUN   = +37:12:23.5
# AZ_SUN    = +263:45:02.6
# ETAA      = 0.8
# ETAB      = 0.99
# POLANGLE  = 0.0
# TELSIZEAM = 1.0
# TELSIZEBM = 1.0
# AST_VERS  = 05.01
0000 1420250610 8.4673
0001 1420251831 8.4270
0002 1420253051 8.4256
0003 1420254272 8.5028
0004 1420255493 8.3821
0005 1420256713 8.4119
0006 1420257934 8.4891
0007 1420259155 8.3207
0008 1420260375 8.3131
0009 1420261596 8.3388
0010 1420262817 8.3588
0011 1420264038 8.4993
0012 1420265258 8.5183
0013 1420266479 8.6149
0014 1420267700 8.5032
0015 1420268920 8.5322
0016 1420270141 8.4122
0017 1420271362 8.4794
0018 1420272583 8.5192
0019 1420273803 8.5530
0020 1420275024 8.6009
0021 1420276245 8.6484
0022 1420277465 8.7343
0023 1420278686 8.5648
0024 1420279907 8.6520
0025 1420281127 8.7380
0026 1420282348 8.7750
0027 1420283569 8.8811
0028 1420284790 8.7509
0029 1420286010 8.8442
0030 1420287231 9.0171
0031 1420288452 9.0405
0032 1420289672 9.0084
0033 1420290893 9.1028
0034 1420292114 8.9145
0035 1420293334 9.0486
0036 1420294555 9.0743
0037 1420295776 9.1757
0038 1420296997 9.3128
0039 1420298217 9.1939
0040 1420299438 9.2988
0041 1420300659 9.6213
0042 1420301879 9.4696
0043 1420303100 9.4424
0044 1420304321 9.5955
0045 1420305541 9.4931
0046 1420306762 9.4532
0047 1420307983 9.6855
0048 1420309204 9.6328
0049 1420310424 9.7913
0050 1420311645 9.8420
0051 1420312866 9.8694
0052 1420314086 9.9586
0053 1420315307 9.7934
0054 1420316528 9.9277
0055 1420317749 9.9646
0056 1420318969 10.0243
0057 1420320190 9.9131
0058 1420321411 10.1300
0059 1420322631 10.3526
0060 1420323852 10.2528
0061 1420325073 10.3384
0062 1420326293 10.2956
0063 1420327514 10.5211
0064 1420328735 10.5386
0065 1420329956 10.5422
0066 1420331176 10.6381
0067 1420332397 10.7338
0068 1420333618 10.8237
0069 1420334838 10.8529
0070 1420336059 10.9051
0071 1420337280 10.9581
0072 1420338500 11.0059
0073 1420339721 11.0961
0074 1420340942 11.3082
0075 1420342163 11.4503
0076 1420343383 11.3693
0077 1420344604 11.2633
0078 1420345825 11.3261
0079 1420347045 11.3972
0080 1420348266 11.4038
0081 1420349487 11.7809
0082 1420350708 11.6632
0083 1420351928 11.6300
0084 1420353149 11.7443
0085 1420354370 11.9463
0086 1420355590 11.9652
0087 1420356811 11.9692
0088 1420358032 12.0456
0089 1420359252 12.1369
0090 1420360473 12.2883
0091 1420361694 12.2728
0092 1420362915 12.3898
0093 1420364135 12.2945
0094 1420365356 12.4414
0095 1420366577 12.4245
0096 1420367797 12.7189
0097 1420369018 12.7651
0098 1420370239 12.7176
0099 1420371459 12.8065
0100 1420372680 12.7306
0101 1420373901 12.9229
0102 1420375122 13.0176
0103 1420376342 13.2539
0104 1420377563 13.2612
0105 1420378784 13.3298
0106 1420380004 13.2347
0107 1420381225 13.4953
0108 1420382446 13.4174
0109 1420383666 13.5767
0110 1420384887 13.5951
0111 1420386108 13.7861
0112 1420387329 13.8165
0113 1420388549 13.8057
0114 1420389770 13.9995
0115 1420390991 14.1419
0116 1420392211 14.2229
0117 1420393432 14.5771
0118 1420394653 14.4264
0119 1420395874 14.4615
0120 1420397094 14.5487
0121 1420398315 14.6094
0122 1420399536 14.5983
0123 1420400756 14.9338
0124 1420401977 14.8617
0125 1420403198 14.9180
0126 1420404418 15.1892
0127 1420405639 15.0340
0128 1420406860 15.1292
0129 1420408081 15.4344
0130 1420409301 15.6162
0131 1420410522 15.5126
0132 1420411743 15.7366
0133 1420412963 15.6982
0134 1420414184 15.8514
0135 1420415405 16.1568
0136 1420416625 16.2787
0137 1420417846 16.1585
0138 1420419067 16.2817
0139 1420420288 16.4713
0140 1420421508 16.5004
0141 1420422729 16.6073
0142 1420423950 16.7213
0143 1420425170 16.6848
0144 1420426391 16.8609
0145 1420427612 17.1342
0146 1420428833 16.8923
0147 1420430053 17.0237
0148 1420431274 17.2845
0149 1420432495 17.3600
0150 1420433715 17.3119
0151 1420434936 17.7815
0152 1420436157 17.5050
0153 1420437377 17.7709
0154 1420438598 17.9104
0155 1420439819 17.6866
0156 1420441040 18.0924
0157 1420442260 18.4043
0158 1420443481 18.5586
0159 1420444702 18.7196
0160 1420445922 18.6808
0161 1420447143 18.4632
0162 1420448364 18.6243
0163 1420449584 18.9015
0164 1420450805 18.8553
0165 1420452026 18.8934
0166 1420453247 19.1626
0167 1420454467 19.0147
0168 1420455688 19.2791
0169 1420456909 19.4591
0170 1420458129 19.3097
0171 1420459350 19.5814
0172 1420460571 19.8130
0173 1420461791 20.1442
0174 1420463012 19.7633
0175 1420464233 20.3287
0176 1420465454 20.3149
0177 1420466674 20.2378
0178 1420467895 20.3619
0179 1420469116 20.4239
0180 1420470336 20.5714
0181 1420471557 20.6610
0182 1420472778 20.7928
0183 1420473999 20.9438
0184 1420475219 21.1905
0185 1420476440 21.0067
0186 1420477661 21.1192
0187 1420478881 21.0386
0188 1420480102 21.6774
0189 1420481323 21.6334
0190 1420482543 21.8477
0191 1420483764 21.7981
0192 1420484985 21.8067
0193 1420486206 22.1063
0194 1420487426 22.0206
0195 1420488647 22.3938
0196 1420489868 22.4314
0197 1420491088 22.2128
0198 1420492309 22.6803
0199 1420493530 22.8254
0200 1420494750 22.5330
0201 1420495971 22.9006
0202 1420497192 23.1827
0203 1420498413 23.8508
0204 1420499633 24.0189
0205 1420500854 23.2214
0206 1420502075 23.3422
0207 1420503295 23.3266
0208 1420504516 23.6383
0209 1420505737 23.7552
0210 1420506958 23.5955
0211 1420508178 23.8595
0212 1420509399 23.7677
0213 1420510620 24.1520
0214 1420511840 24.2531
0215 1420513061 24.3948
0216 1420514282 24.7336
0217 1420515502 24.5858
0218 1420516723 25.0054
0219 1420517944 24.9495
0220 1420519165 24.5573
0221 1420520385 25.0918
0222 1420521606 25.1889
0223 1420522827 24.9410
0224 1420524047 25.1354
0225 1420525268 25.5311
0226 1420526489 25.7031
0227 1420527709 25.8807
0228 1420528930 25.7818
0229 1420530151 25.6962
0230 1420531372 25.6691
0231 1420532592 25.9981
0232 1420533813 25.8672
0233 1420535034 26.1675
0234 1420536254 26.3216
0235 1420537475 26.4038
0236 1420538696 26.4329
0237 1420539916 26.6949
0238 1420541137 26.8460
0239 1420542358 27.2479
0240 1420543579 26.7981
0241 1420544799 26.7590
0242 1420546020 27.1066
0243 1420547241 27.1422
0244 1420548461 27.4382
0245 1420549682 27.4149
0246 1420550903 27.2464
0247 1420552124 27.4795
0248 1420553344 27.3693
0249 1420554565 27.8211
0250 1420555786 28.0864
0251 1420557006 28.3609
0252 1420558227 27.9952
0253 1420559448 28.2196
0254 1420560668 27.9524
0255 1420561889 27.8772
0256 1420563110 28.3616
0257 1420564331 28.5613
0258 1420565551 28.5949
0259 1420566772 28.6616
0260 1420567993 28.9436
0261 1420569213 28.8188
0262 1420570434 28.9418
0263 1420571655 29.1408
0264 1420572875 28.9769
0265 1420574096 29.2083
0266 1420575317 29.3481
0267 1420576538 29.3451
0268 1420577758 29.4234
0269 1420578979 29.7794
0270 1420580200 29.9059
0271 1420581420 29.8513
0272 1420582641 30.0998
0273 1420583862 29.9501
0274 1420585083 29.6512
0275 1420586303 30.1803
0276 1420587524 30.4077
0277 1420588745 30.0828
0278 1420589965 30.6470
0279 1420591186 30.5792
0280 1420592407 30.6198
0281 1420593627 30.7277
0282 1420594848 30.6442
0283 1420596069 31.1143
0284 1420597290 30.7940
0285 1420598510 31.0034
0286 1420599731 30.9840
0287 1420600952 31.3409
0288 1420602172 31.8826
0289 1420603393 31.8511
0290 1420604614 31.7025
0291 1420605834 31.2992
0292 1420607055 32.0214
0293 1420608276 31.2166
0294 1420609497 31.8978
0295 1420610717 31.8502
0296 1420611938 32.3461
0297 1420613159 32.2335
0298 1420614379 32.3516
0299 1420615600 32.6943
0300 1420616821 32.5590
0301 1420618041 32.2542
0302 1420619262 32.4354
0303 1420620483 32.8750
0304 1420621704 32.7715
0305 1420622924 33.2630
0306 1420624145 32.9596
0307 1420625366 32.9710
0308 1420626586 32.5947
0309 1420627807 33.5319
0310 1420629028 33.1987
0311 1420630249 32.9487
0312 1420631469 33.1174
0313 1420632690 33.3719
0314 1420633911 33.9319
0315 1420635131 35.4945
0316 1420636352 34.2139
0317 1420637573 33.5870
0318 1420638793 33.3780
0319 1420640014 34.0633
0320 1420641235 34.1689
0321 1420642456 34.3734
0322 1420643676 33.7980
0323 1420644897 34.2495
0324 1420646118 34.3819
0325 1420647338 33.8894
0326 1420648559 34.1817
0327 1420649780 34.1576
0328 1420651000 34.0263
0329 1420652221 34.4351
0330 1420653442 34.6470
0331 1420654663 34.5090
0332 1420655883 34.8848
0333 1420657104 34.9604
0334 1420658325 34.9478
0335 1420659545 34.8076
0336 1420660766 35.3699
0337 1420661987 34.9227
0338 1420663208 35.8882
0339 1420664428 35.2835
0340 1420665649 34.9100
0341 1420666870 35.2140
0342 1420668090 35.1280
0343 1420669311 35.1427
0344 1420670532 35.0561
0345 1420671752 35.3165
0346 1420672973 35.5388
0347 1420674194 35.4518
0348 1420675415 35.5783
0349 1420676635 35.4209
0350 1420677856 35.8574
0351 1420679077 35.7097
0352 1420680297 35.8456
0353 1420681518 35.9194
0354 1420682739 36.1397
0355 1420683959 36.5802
0356 1420685180 36.0436
0357 1420686401 35.8687
0358 1420687622 36.0401
0359 1420688842 36.0158
0360 1420690063 35.6442
0361 1420691284 36.3931
0362 1420692504 36.5986
0363 1420693725 36.1289
0364 1420694946 36.0597
0365 1420696166 35.9962
0366 1420697387 36.3927
0367 1420698608 36.4200
0368 1420699829 37.0060
0369 1420701049 36.5297
0370 1420702270 36.5820
0371 1420703491 37.3637
0372 1420704711 37.0689
0373 1420705932 36.7982
0374 1420707153 36.8955
0375 1420708374 37.1311
0376 1420709594 36.7840
0377 1420710815 37.0125
0378 1420712036 37.2534
0379 1420713256 37.1602
0380 1420714477 37.0015
0381 1420715698 37.2574
0382 1420716918 36.9871
0383 1420718139 37.2972
0384 1420719360 37.1737
0385 1420720581 37.5664
0386 1420721801 37.6060
0387 1420723022 37.2926
0388 1420724243 37.1010
0389 1420725463 37.3087
0390 1420726684 37.3941
0391 1420727905 37.3844
0392 1420729125 38.3416
0393 1420730346 37.7617
0394 1420731567 37.4995
0395 1420732788 37.1810
0396 1420734008 37.5435
0397 1420735229 37.4701
0398 1420736450 38.0328
0399 1420737670 38.5234
0400 1420738891 38.2793
0401 1420740112 38.1833
0402 1420741333 37.8212
0403 1420742553 38.3262
0404 1420743774 37.7334
0405 1420744995 37.9127
0406 1420746215 37.6486
0407 1420747436 37.4921
0408 1420748657 38.0147
0409 1420749877 37.9570
0410 1420751098 37.8949
0411 1420752319 38.4023
0412 1420753540 37.9381
0413 1420754760 38.1882
0414 1420755981 37.8666
0415 1420757202 37.7129
0416 1420758422 38.2423
0417 1420759643 38.4984
0418 1420760864 38.1639
0419 1420762084 37.6120
0420 1420763305 38.0018
0421 1420764526 38.1738
0422 1420765747 38.2489
0423 1420766967 38.0101
0424 1420768188 38.6609
0425 1420769409 39.3125
0426 1420770629 38.5628
0427 1420771850 38.2041
0428 1420773071 38.5210
0429 1420774291 38.2329
0430 1420775512 38.2740
0431 1420776733 38.4615
0432 1420777954 38.3228
0433 1420779174 38.4583
0434 1420780395 38.1299
0435 1420781616 37.9285
0436 1420782836 38.0555
0437 1420784057 38.5571
0438 1420785278 38.5413
0439 1420786499 39.0480
0440 1420787719 38.3049
0441 1420788940 38.5800
0442 1420790161 38.5363
0443 1420791381 38.9941
0444 1420792602 37.8087
0445 1420793823 38.8089
0446 1420795043 38.7886
0447 1420796264 39.2175
0448 1420797485 38.5859
0449 1420798706 38.7440
0450 1420799926 40.2115
0451 1420801147 44.8405
0452 1420802368 39.9464
0453 1420803588 38.1702
0454 1420804809 38.8494
0455 1420806030 38.7407
0456 1420807250 39.0289
0457 1420808471 38.8838
0458 1420809692 38.2473
0459 1420810913 38.6041
0460 1420812133 38.8952
0461 1420813354 38.6122
0462 1420814575 38.2109
0463 1420815795 38.0573
0464 1420817016 39.0010
0465 1420818237 38.0662
0466 1420819458 38.8016
0467 1420820678 38.7233
0468 1420821899 39.1965
0469 1420823120 38.8356
0470 1420824340 38.7612
0471 1420825561 38.5027
0472 1420826782 38.1161
0473 1420828002 38.5323
0474 1420829223 38.5605
0475 1420830444 38.3380
0476 1420831665 38.8440
0477 1420832885 38.6681
0478 1420834106 38.3965
0479 1420835327 38.6961
0480 1420836547 38.6892
0481 1420837768 38.6731
0482 1420838989 38.4370
0483 1420840209 38.7558
0484 1420841430 38.7599
0485 1420842651 38.5010
0486 1420843872 38.6257
0487 1420845092 38.2567
0488 1420846313 38.9735
0489 1420847534 38.4545
0490 1420848754 38.4128
0491 1420849975 38.5352
0492 1420851196 38.6888
0493 1420852416 38.5652
0494 1420853637 38.9378
0495 1420854858 38.4745
0496 1420856079 38.6857
0497 1420857299 38.9626
0498 1420858520 39.2346
0499 1420859741 39.0690
0500 1420860961 38.0779
0501 1420862182 38.4594
0502 1420863403 39.1553
0503 1420864624 38.2928
0504 1420865844 38.2337
0505 1420867065 38.9703
0506 1420868286 39.0826
0507 1420869506 38.4658
0508 1420870727 38.6346
0509 1420871948 38.6661
0510 1420873168 38.5971
0511 1420874389 38.1864
0512 1420875610 38.0935
0513 1420876831 38.8011
0514 1420878051 38.3716
0515 1420879272 38.6578
0516 1420880493 38.8346
0517 1420881713 38.7213
0518 1420882934 37.9748
0519 1420884155 38.2214
0520 1420885375 37.9776
0521 1420886596 38.8899
0522 1420887817 38.5097
0523 1420889038 38.7467
0524 1420890258 38.4579
0525 1420891479 38.2086
0526 1420892700 38.7301
0527 1420893920 38.5869
0528 1420895141 38.8047
0529 1420896362 39.0899
0530 1420897583 38.5109
0531 1420898803 38.7534
0532 1420900024 39.0665
0533 1420901245 39.0960
0534 1420902465 38.8222
0535 1420903686 38.6760
0536 1420904907 37.9852
0537 1420906127 37.8833
0538 1420907348 38.2840
0539 1420908569 38.3168
0540 1420909790 38.7176
0541 1420911010 38.7231
0542 1420912231 38.5877
0543 1420913452 38.4879
0544 1420914672 38.6684
0545 1420915893 38.8429
0546 1420917114 38.7288
0547 1420918334 38.4659
0548 1420919555 38.7352
0549 1420920776 38.9946
0550 1420921997 38.2312
0551 1420923217 38.5257
0552 1420924438 38.2462
0553 1420925659 38.2030
0554 1420926879 38.5139
0555 1420928100 38.1557
0556 1420929321 38.0972
0557 1420930541 38.1718
0558 1420931762 38.2610
0559 1420932983 38.6345
0560 1420934204 38.1264
0561 1420935424 38.5768
0562 1420936645 38.3403
0563 1420937866 37.8286
0564 1420939086 38.4815
0565 1420940307 38.2173
0566 1420941528 38.3718
0567 1420942749 37.6604
0568 1420943969 38.3036
0569 1420945190 38.4157
0570 1420946411 38.4957
0571 1420947631 38.4516
0572 1420948852 38.0728
0573 1420950073 38.5382
0574 1420951293 38.4455
0575 1420952514 38.6920
0576 1420953735 38.2895
0577 1420954956 38.0129
0578 1420956176 37.9297
0579 1420957397 38.5871
0580 1420958618 38.3694
0581 1420959838 38.4586
0582 1420961059 38.0647
0583 1420962280 38.1729
0584 1420963500 38.1683
0585 1420964721 38.1367
0586 1420965942 38.8648
0587 1420967163 38.5070
0588 1420968383 38.5071
0589 1420969604 38.4216
0590 1420970825 37.6331
0591 1420972045 37.8330
0592 1420973266 37.8937
0593 1420974487 37.4290
0594 1420975708 38.0891
0595 1420976928 38.1527
0596 1420978149 38.1619
0597 1420979370 38.3011
0598 1420980590 38.2329
0599 1420981811 37.8243
0600 1420983032 37.9953
0601 1420984252 38.5157
0602 1420985473 38.1999
0603 1420986694 38.0429
0604 1420987915 38.1905
0605 1420989135 37.4338
0606 1420990356 38.0716
0607 1420991577 38.4151
0608 1420992797 38.3034
0609 1420994018 37.9229
0610 1420995239 37.9728
0611 1420996459 37.6517
0612 1420997680 38.0909
0613 1420998901 38.2875
0614 1421000122 38.7156
0615 1421001342 37.9663
0616 1421002563 37.7984
0617 1421003784 37.6105
0618 1421005004 38.2772
0619 1421006225 38.0334
0620 1421007446 37.6378
0621 1421008666 37.7049
0622 1421009887 38.1200
0623 1421011108 37.6505
0624 1421012329 38.2421
0625 1421013549 38.3320
0626 1421014770 38.2789
0627 1421015991 37.9047
0628 1421017211 37.5831
0629 1421018432 38.5967
0630 1421019653 38.5605
0631 1421020874 38.1141
0632 1421022094 38.3246
0633 1421023315 38.1292
0634 1421024536 37.7772
0635 1421025756 37.5925
0636 1421026977 38.4331
0637 1421028198 38.4825
0638 1421029418 37.9339
0639 1421030639 38.3938
0640 1421031860 37.6937
0641 1421033081 38.3161
0642 1421034301 38.0425
0643 1421035522 38.5475
0644 1421036743 38.0741
0645 1421037963 38.3454
0646 1421039184 38.3621
0647 1421040405 38.2739
0648 1421041625 39.0097
0649 1421042846 38.6200
0650 1421044067 38.3542
0651 1421045288 37.5516
0652 1421046508 37.8118
0653 1421047729 38.1288
0654 1421048950 38.2246
0655 1421050170 37.7868
0656 1421051391 38.6269
0657 1421052612 38.8146
0658 1421053833 38.6220
0659 1421055053 38.7180
0660 1421056274 37.8355
0661 1421057495 38.6559
0662 1421058715 38.2850
0663 1421059936 38.3428
0664 1421061157 37.6957
0665 1421062377 38.3800
0666 1421063598 38.1230
0667 1421064819 38.1458
0668 1421066040 38.1154
0669 1421067260 38.0362
0670 1421068481 38.0722
0671 1421069702 38.6517
0672 1421070922 38.2302
0673 1421072143 37.7099
0674 1421073364 37.9723
0675 1421074584 38.5613
0676 1421075805 38.3135
0677 1421077026 38.7493
0678 1421078247 37.9923
0679 1421079467 38.6778
0680 1421080688 38.1376
0681 1421081909 38.3277
0682 1421083129 38.1571
0683 1421084350 38.7258
0684 1421085571 38.4567
0685 1421086791 38.2761
0686 1421088012 38.8833
0687 1421089233 38.5591
0688 1421090454 38.1802
0689 1421091674 38.1066
0690 1421092895 38.4174
0691 1421094116 38.8430
0692 1421095336 39.0081
0693 1421096557 38.7699
0694 1421097778 39.0447
0695 1421098999 38.7867
0696 1421100219 38.8289
0697 1421101440 38.8148
0698 1421102661 38.7988
0699 1421103881 38.4937
0700 1421105102 39.3520
0701 1421106323 38.7159
0702 1421107543 38.6023
0703 1421108764 38.7871
0704 1421109985 39.0580
0705 1421111206 38.6183
0706 1421112426 38.8976
0707 1421113647 39.1684
0708 1421114868 39.0582
0709 1421116088 38.8077
0710 1421117309 39.0522
0711 1421118530 39.2169
0712 1421119750 38.5534
0713 1421120971 38.8796
0714 1421122192 38.7825
0715 1421123413 39.5132
0716 1421124633 38.7526
0717 1421125854 39.1998
0718 1421127075 39.1794
0719 1421128295 39.2943
0720 1421129516 39.2058
0721 1421130737 39.2617
0722 1421131958 39.6068
0723 1421133178 39.8051
0724 1421134399 39.3541
0725 1421135620 39.1630
0726 1421136840 38.9137
0727 1421138061 39.2391
0728 1421139282 39.0871
0729 1421140502 39.4764
0730 1421141723 39.8004
0731 1421142944 39.4053
0732 1421144165 39.1210
0733 1421145385 39.2527
0734 1421146606 39.6345
0735 1421147827 39.8866
0736 1421149047 39.8979
0737 1421150268 39.4743
0738 1421151489 39.8194
0739 1421152709 39.9219
0740 1421153930 40.0092
0741 1421155151 39.2646
0742 1421156372 40.1326
0743 1421157592 40.1847
0744 1421158813 39.5351
0745 1421160034 39.5449
0746 1421161254 39.2345
0747 1421162475 39.8687
0748 1421163696 39.6049
0749 1421164916 40.0084
0750 1421166137 39.4748
0751 1421167358 39.8567
0752 1421168579 39.3876
0753 1421169799 40.0536
0754 1421171020 40.2107
0755 1421172241 39.8756
0756 1421173461 40.1603
0757 1421174682 40.1591
0758 1421175903 40.4597
0759 1421177124 39.3307
0760 1421178344 40.1363
0761 1421179565 40.2601
0762 1421180786 40.2577
0763 1421182006 40.4894
0764 1421183227 40.6571
0765 1421184448 40.3109
0766 1421185668 40.5245
0767 1421186889 40.1360
0768 1421188110 40.8893
0769 1421189331 40.4523
0770 1421190551 40.2134
0771 1421191772 40.5139
0772 1421192993 40.5628
0773 1421194213 40.6894
0774 1421195434 40.8775
0775 1421196655 40.5402
0776 1421197875 40.5388
0777 1421199096 40.3858
0778 1421200317 40.5288
0779 1421201538 40.5921
0780 1421202758 41.0072
0781 1421203979 40.3434
0782 1421205200 40.8291
0783 1421206420 41.1562
0784 1421207641 41.0954
0785 1421208862 41.0322
0786 1421210083 40.5080
0787 1421211303 40.7466
0788 1421212524 41.1087
0789 1421213745 40.7946
0790 1421214965 41.6853
0791 1421216186 41.4419
0792 1421217407 41.0942
0793 1421218627 40.9533
0794 1421219848 41.2033
0795 1421221069 41.2634
0796 1421222290 41.3789
0797 1421223510 41.3140
0798 1421224731 41.8227
0799 1421225952 41.8692
0800 1421227172 41.5475
0801 1421228393 41.4156
0802 1421229614 41.0891
0803 1421230834 41.7003
0804 1421232055 42.1183
0805 1421233276 41.8652
0806 1421234497 41.9110
0807 1421235717 41.6006
0808 1421236938 41.6353
0809 1421238159 41.5177
0810 1421239379 41.5351
0811 1421240600 42.0561
0812 1421241821 41.7415
0813 1421243041 41.7651
0814 1421244262 41.5115
0815 1421245483 41.8669
0816 1421246704 41.8747
0817 1421247924 42.7121
0818 1421249145 42.1797
0819 1421250366 41.8560
0820 1421251586 42.4671
0821 1421252807 42.5454
0822 1421254028 42.1086
0823 1421255249 41.8093
0824 1421256469 41.7477
0825 1421257690 42.5357
0826 1421258911 42.5632
0827 1421260131 42.4353
0828 1421261352 42.1703
0829 1421262573 41.8852
0830 1421263793 42.4507
0831 1421265014 42.6698
0832 1421266235 43.1388
0833 1421267456 43.1910
0834 1421268676 43.1559
0835 1421269897 42.8572
0836 1421271118 43.1090
0837 1421272338 43.1827
0838 1421273559 42.9954
0839 1421274780 43.0277
0840 1421276000 43.3525
0841 1421277221 43.3019
0842 1421278442 43.3346
0843 1421279663 43.0351
0844 1421280883 43.2660
0845 1421282104 43.1958
0846 1421283325 43.3737
0847 1421284545 43.8341
0848 1421285766 44.1173
0849 1421286987 43.6150
0850 1421288208 43.5519
0851 1421289428 43.6832
0852 1421290649 43.5582
0853 1421291870 43.3243
0854 1421293090 43.0446
0855 1421294311 43.0652
0856 1421295532 43.4724
0857 1421296752 43.3472
0858 1421297973 43.5567
0859 1421299194 43.2586
0860 1421300415 43.9894
0861 1421301635 44.1401
0862 1421302856 43.7941
0863 1421304077 44.1236
0864 1421305297 43.9077
0865 1421306518 43.8623
0866 1421307739 44.0251
0867 1421308959 44.4122
0868 1421310180 44.0411
0869 1421311401 44.6939
0870 1421312622 43.9880
0871 1421313842 44.5744
0872 1421315063 43.9368
0873 1421316284 44.4507
0874 1421317504 44.2726
0875 1421318725 44.5598
0876 1421319946 43.6164
0877 1421321166 44.5668
0878 1421322387 44.8664
0879 1421323608 44.5495
0880 1421324829 44.4158
0881 1421326049 43.9077
0882 1421327270 44.6137
0883 1421328491 45.1490
0884 1421329711 44.9109
0885 1421330932 44.8135
0886 1421332153 44.4190
0887 1421333374 44.8213
0888 1421334594 44.6823
0889 1421335815 44.3141
0890 1421337036 44.9300
0891 1421338256 44.7024
0892 1421339477 44.6635
0893 1421340698 44.9548
0894 1421341918 45.2875
0895 1421343139 44.8617
0896 1421344360 45.9497
0897 1421345581 45.6545
0898 1421346801 45.3917
0899 1421348022 44.8442
0900 1421349243 45.1321
0901 1421350463 45.2672
0902 1421351684 45.0408
0903 1421352905 44.9337
0904 1421354125 45.4344
0905 1421355346 45.0072
0906 1421356567 45.8746
0907 1421357788 45.1317
0908 1421359008 45.4320
0909 1421360229 45.5875
0910 1421361450 45.3294
0911 1421362670 45.5093
0912 1421363891 45.2842
0913 1421365112 45.5816
0914 1421366333 46.1035
0915 1421367553 45.3372
0916 1421368774 45.8509
0917 1421369995 45.7069
0918 1421371215 45.3720
0919 1421372436 46.1433
0920 1421373657 45.6940
0921 1421374877 45.7451
0922 1421376098 45.7072
0923 1421377319 45.6407
0924 1421378540 45.8648
0925 1421379760 46.2634
0926 1421380981 46.1466
0927 1421382202 46.1092
0928 1421383422 46.0597
0929 1421384643 45.7186
0930 1421385864 46.1525
0931 1421387084 46.4485
0932 1421388305 46.1994
0933 1421389526 46.2799
0934 1421390747 46.4187
0935 1421391967 46.3724
0936 1421393188 46.9100
0937 1421394409 46.3645
0938 1421395629 46.5791
0939 1421396850 46.7138
0940 1421398071 45.7362
0941 1421399291 46.0087
0942 1421400512 46.4925
0943 1421401733 46.5695
0944 1421402954 46.8132
0945 1421404174 46.3387
0946 1421405395 47.2287
0947 1421406616 46.5204
0948 1421407836 46.1785
0949 1421409057 47.1533
0950 1421410278 47.0545
0951 1421411499 46.7219
0952 1421412719 46.5019
0953 1421413940 46.8027
0954 1421415161 46.9270
0955 1421416381 47.5615
0956 1421417602 47.4289
0957 1421418823 46.7433
0958 1421420043 47.1081
0959 1421421264 46.9440
0960 1421422485 46.9325
0961 1421423706 47.2186
0962 1421424926 46.3713
0963 1421426147 47.2064
0964 1421427368 46.8310
0965 1421428588 47.0465
0966 1421429809 47.3187
0967 1421431030 47.1893
0968 1421432250 47.7489
0969 1421433471 46.4976
0970 1421434692 46.9994
0971 1421435913 47.4352
0972 1421437133 46.7989
0973 1421438354 47.5351
0974 1421439575 47.5241
0975 1421440795 46.5236
0976 1421442016 47.3085
0977 1421443237 47.2972
0978 1421444458 47.3034
0979 1421445678 47.2930
0980 1421446899 47.8072
0981 1421448120 47.4037
0982 1421449340 46.7981
0983 1421450561 47.2043
0984 1421451782 47.2965
0985 1421453002 47.5935
0986 1421454223 47.9207
0987 1421455444 47.5513
0988 1421456665 47.4406
0989 1421457885 47.6174
0990 1421459106 47.7345
0991 1421460327 47.8539
0992 1421461547 48.1379
0993 1421462768 47.8746
0994 1421463989 47.8708
0995 1421465209 48.4785
0996 1421466430 47.9393
0997 1421467651 48.6104
0998 1421468872 47.4111
0999 1421470092 48.0211
1000 1421471313 48.0836
1001 1421472534 48.1927
1002 1421473754 48.4877
1003 1421474975 48.0016
1004 1421476196 48.4481
1005 1421477416 48.3664
1006 1421478637 48.3867
1007 1421479858 48.4864
1008 1421481079 48.2680
1009 1421482299 48.9965
1010 1421483520 49.2537
1011 1421484741 49.1271
1012 1421485961 48.6758
1013 1421487182 47.8119
1014 1421488403 48.9248
1015 1421489624 48.6653
1016 1421490844 49.3656
1017 1421492065 49.6850
1018 1421493286 50.2333
1019 1421494506 50.5540
1020 1421495727 51.4374
1021 1421496948 51.7329
1022 1421498168 52.5627
1023 1421499389 52.3510
1024 1421500610 45.6975
1025 1421501831 52.7659
1026 1421503051 53.5693
1027 1421504272 52.0157
1028 1421505493 50.1789
1029 1421506713 50.4949
1030 1421507934 50.4294
1031 1421509155 49.7114
1032 1421510375 48.7652
1033 1421511596 49.2025
1034 1421512817 48.8710
1035 1421514038 48.2719
1036 1421515258 48.6891
1037 1421516479 48.9948
1038 1421517700 48.4380
1039 1421518920 47.9957
1040 1421520141 48.5586
1041 1421521362 48.6959
1042 1421522583 47.7689
1043 1421523803 47.9603
1044 1421525024 48.6321
1045 1421526245 48.0122
1046 1421527465 47.6968
1047 1421528686 47.9161
1048 1421529907 48.3635
1049 1421531127 48.2174
1050 1421532348 47.7097
1051 1421533569 47.6561
1052 1421534790 48.2516
1053 1421536010 48.6964
1054 1421537231 48.9014
1055 1421538452 48.1687
1056 1421539672 47.6924
1057 1421540893 47.8014
1058 1421542114 47.6296
1059 1421543334 47.3939
1060 1421544555 48.3788
1061 1421545776 48.1015
1062 1421546997 48.1624
1063 1421548217 47.5124
1064 1421549438 47.6864
1065 1421550659 47.2759
1066 1421551879 47.6567
1067 1421553100 47.6898
1068 1421554321 48.3161
1069 1421555541 48.0061
1070 1421556762 47.2684
1071 1421557983 47.4150
1072 1421559204 47.8131
1073 1421560424 47.4598
1074 1421561645 47.9641
1075 1421562866 47.5707
1076 1421564086 47.5629
1077 1421565307 47.6682
1078 1421566528 47.7937
1079 1421567749 47.7123
1080 1421568969 47.1326
1081 1421570190 47.6572
1082 1421571411 47.4143
1083 1421572631 47.2081
1084 1421573852 47.7856
1085 1421575073 47.3565
1086 1421576293 47.2439
1087 1421577514 47.0547
1088 1421578735 47.0327
1089 1421579956 47.6693
1090 1421581176 47.7887
1091 1421582397 46.8382
1092 1421583618 47.0897
1093 1421584838 46.4186
1094 1421586059 47.2407
1095 1421587280 47.1459
1096 1421588500 46.9434
1097 1421589721 46.5781
1098 1421590942 47.4885
1099 1421592163 47.2219
1100 1421593383 47.0046
1101 1421594604 47.0123
1102 1421595825 46.5919
1103 1421597045 47.1536
1104 1421598266 46.4527
1105 1421599487 46.9814
1106 1421600708 47.1167
1107 1421601928 46.7089
1108 1421603149 46.5000
1109 1421604370 46.4412
1110 1421605590 46.7977
1111 1421606811 46.9172
1112 1421608032 46.6005
1113 1421609252 46.2187
1114 1421610473 46.8177
1115 1421611694 46.2221
1116 1421612915 46.2709
1117 1421614135 46.1795
1118 1421615356 45.9900
1119 1421616577 46.2617
1120 1421617797 46.7896
1121 1421619018 46.0426
1122 1421620239 46.4499
1123 1421621459 46.4902
1124 1421622680 46.0933
1125 1421623901 45.4075
1126 1421625122 45.6985
1127 1421626342 45.2370
1128 1421627563 46.1569
1129 1421628784 45.8720
1130 1421630004 45.6438
1131 1421631225 46.2835
1132 1421632446 46.4390
1133 1421633666 47.2695
1134 1421634887 46.7755
1135 1421636108 46.5660
1136 1421637329 46.0952
1137 1421638549 45.9570
1138 1421639770 45.8674
1139 1421640991 45.1940
1140 1421642211 45.9303
1141 1421643432 45.5631
1142 1421644653 45.6434
1143 1421645874 45.3762
1144 1421647094 46.0648
1145 1421648315 45.3419
1146 1421649536 46.2649
1147 1421650756 45.6328
1148 1421651977 45.7320
1149 1421653198 45.8670
1150 1421654418 46.5915
1151 1421655639 46.6064
1152 1421656860 46.2922
1153 1421658081 44.9758
1154 1421659301 44.4693
1155 1421660522 44.7255
1156 1421661743 45.5220
1157 1421662963 44.8464
1158 1421664184 45.3772
1159 1421665405 45.0794
1160 1421666625 45.0880
1161 1421667846 45.5807
1162 1421669067 45.3977
1163 1421670288 44.6549
1164 1421671508 44.5614
1165 1421672729 45.1161
1166 1421673950 45.0510
1167 1421675170 44.7179
1168 1421676391 44.9517
1169 1421677612 44.5680
1170 1421678833 44.5609
1171 1421680053 45.3315
1172 1421681274 45.0226
1173 1421682495 44.6228
1174 1421683715 44.5537
1175 1421684936 44.3655
1176 1421686157 44.5901
1177 1421687377 44.6270
1178 1421688598 44.7097
1179 1421689819 44.3059
1180 1421691040 44.7966
1181 1421692260 44.2859
1182 1421693481 44.8075
1183 1421694702 44.4475
1184 1421695922 44.8064
1185 1421697143 43.8935
1186 1421698364 43.6243
1187 1421699584 44.4272
1188 1421700805 44.3710
1189 1421702026 43.6543
1190 1421703247 44.1651
1191 1421704467 43.8257
1192 1421705688 44.1394
1193 1421706909 44.1525
1194 1421708129 44.1818
1195 1421709350 44.7759
1196 1421710571 44.0808
1197 1421711791 43.8516
1198 1421713012 44.7285
1199 1421714233 43.6151
1200 1421715454 44.4178
1201 1421716674 44.2416
1202 1421717895 44.6187
1203 1421719116 44.3475
1204 1421720336 44.0659
1205 1421721557 43.9276
1206 1421722778 43.8879
1207 1421723999 43.6000
1208 1421725219 43.5871
1209 1421726440 43.7511
1210 1421727661 44.1404
1211 1421728881 43.1981
1212 1421730102 43.0502
1213 1421731323 43.4689
1214 1421732543 43.8822
1215 1421733764 43.3065
1216 1421734985 43.2654
1217 1421736206 43.1780
1218 1421737426 43.8041
1219 1421738647 43.5160
1220 1421739868 43.2018
1221 1421741088 42.6720
1222 1421742309 42.7392
1223 1421743530 43.0130
1224 1421744750 43.2117
1225 1421745971 43.2658
1226 1421747192 43.4947
1227 1421748413 42.3897
1228 1421749633 43.2526
1229 1421750854 42.5189
1230 1421752075 42.4713
1231 1421753295 43.0691
1232 1421754516 42.2403
1233 1421755737 42.7041
1234 1421756958 42.6717
1235 1421758178 42.5342
1236 1421759399 43.0078
1237 1421760620 43.0911
1238 1421761840 42.7650
1239 1421763061 42.5997
1240 1421764282 43.0110
1241 1421765502 42.4603
1242 1421766723 42.1456
1243 1421767944 42.7050
1244 1421769165 42.2834
1245 1421770385 42.3458
1246 1421771606 42.4244
1247 1421772827 42.3184
1248 1421774047 42.4951
1249 1421775268 42.3306
1250 1421776489 42.4103
1251 1421777709 42.5093
1252 1421778930 42.5154
1253 1421780151 42.6493
1254 1421781372 41.8553
1255 1421782592 42.2416
1256 1421783813 41.9000
1257 1421785034 42.2398
1258 1421786254 42.0423
1259 1421787475 41.6266
1260 1421788696 42.1068
1261 1421789916 42.1085
1262 1421791137 42.2577
1263 1421792358 42.4414
1264 1421793579 42.2528
1265 1421794799 41.8569
1266 1421796020 41.7808
1267 1421797241 41.1751
1268 1421798461 41.7064
1269 1421799682 41.4141
1270 1421800903 41.7668
1271 1421802124 42.2091
1272 1421803344 46.3487
1273 1421804565 46.0115
1274 1421805786 41.2990
1275 1421807006 41.6605
1276 1421808227 41.8315
1277 1421809448 41.3416
1278 1421810668 41.2408
1279 1421811889 41.8544
1280 1421813110 41.4693
1281 1421814331 41.1698
1282 1421815551 41.3555
1283 1421816772 41.0475
1284 1421817993 41.1039
1285 1421819213 40.6410
1286 1421820434 41.1855
1287 1421821655 41.1131
1288 1421822875 41.0954
1289 1421824096 41.8796
1290 1421825317 41.5699
1291 1421826538 40.9629
1292 1421827758 41.4184
1293 1421828979 40.8474
1294 1421830200 41.3273
1295 1421831420 40.9104
1296 1421832641 40.8927
1297 1421833862 41.3055
1298 1421835083 41.1621
1299 1421836303 41.1843
1300 1421837524 40.5813
1301 1421838745 40.7494
1302 1421839965 40.3150
1303 1421841186 40.6986
1304 1421842407 40.6097
1305 1421843627 40.4439
1306 1421844848 40.2736
1307 1421846069 41.0473
1308 1421847290 40.7352
1309 1421848510 40.5929
1310 1421849731 39.7700
1311 1421850952 40.3885
1312 1421852172 41.0452
1313 1421853393 41.2218
1314 1421854614 41.2067
1315 1421855834 41.1895
1316 1421857055 41.0853
1317 1421858276 41.5057
1318 1421859497 42.0229
1319 1421860717 42.4941
1320 1421861938 42.2746
1321 1421863159 41.1142
1322 1421864379 40.9868
1323 1421865600 40.5595
1324 1421866821 40.2385
1325 1421868041 40.4875
1326 1421869262 40.2155
1327 1421870483 40.3208
1328 1421871704 40.4916
1329 1421872924 40.5368
1330 1421874145 40.3051
1331 1421875366 40.4628
1332 1421876586 40.0395
1333 1421877807 40.2209
1334 1421879028 40.0268
1335 1421880249 39.8500
1336 1421881469 40.5600
1337 1421882690 40.6421
1338 1421883911 39.8099
1339 1421885131 39.5220
1340 1421886352 39.8209
1341 1421887573 39.9631
1342 1421888793 39.8132
1343 1421890014 39.6602
1344 1421891235 39.6920
1345 1421892456 39.8915
1346 1421893676 39.6923
1347 1421894897 40.0220
1348 1421896118 39.5909
1349 1421897338 39.0939
1350 1421898559 39.4444
1351 1421899780 39.6713
1352 1421901000 39.4868
1353 1421902221 39.6419
1354 1421903442 39.8804
1355 1421904663 40.3038
1356 1421905883 39.6606
1357 1421907104 39.3227
1358 1421908325 39.6995
1359 1421909545 39.5473
1360 1421910766 39.7140
1361 1421911987 39.4693
1362 1421913208 39.6293
1363 1421914428 39.8256
1364 1421915649 39.4742
1365 1421916870 39.7069
1366 1421918090 39.6964
1367 1421919311 39.4578
1368 1421920532 39.5543
1369 1421921752 39.4941
1370 1421922973 39.7427
1371 1421924194 39.4479
1372 1421925415 39.8506
1373 1421926635 39.6015
1374 1421927856 39.5998
1375 1421929077 39.1442
1376 1421930297 39.8992
1377 1421931518 39.6718
1378 1421932739 39.7167
1379 1421933959 39.7110
1380 1421935180 39.6454
1381 1421936401 39.7354
1382 1421937622 39.7188
1383 1421938842 39.5011
1384 1421940063 40.0807
1385 1421941284 39.6150
1386 1421942504 39.2871
1387 1421943725 40.0137
1388 1421944946 39.4632
1389 1421946166 40.1014
1390 1421947387 39.6475
1391 1421948608 39.7643
1392 1421949829 39.6384
1393 1421951049 39.5836
1394 1421952270 39.2527
1395 1421953491 39.1912
1396 1421954711 39.4630
1397 1421955932 39.0328
1398 1421957153 39.3349
1399 1421958374 39.1394
1400 1421959594 39.3149
1401 1421960815 40.3300
1402 1421962036 39.5670
1403 1421963256 39.6283
1404 1421964477 39.6132
1405 1421965698 39.6646
1406 1421966918 39.6691
1407 1421968139 39.1397
1408 1421969360 39.4850
1409 1421970581 39.5450
1410 1421971801 39.1038
1411 1421973022 39.3691
1412 1421974243 39.7565
1413 1421975463 39.7237
1414 1421976684 40.3899
1415 1421977905 40.1718
1416 1421979125 40.1150
1417 1421980346 40.1960
1418 1421981567 39.8371
1419 1421982788 39.6246
1420 1421984008 40.1889
1421 1421985229 39.7767
1422 1421986450 39.3893
1423 1421987670 39.2587
1424 1421988891 39.3426
1425 1421990112 39.3915
1426 1421991333 39.4455
1427 1421992553 39.2105
1428 1421993774 39.2168
1429 1421994995 39.4465
1430 1421996215 39.7395
1431 1421997436 39.6573
1432 1421998657 39.5316
1433 1421999877 81.2002
1434 1422001098 348.9149
1435 1422002319 108.7606
1436 1422003540 40.4632
1437 1422004760 39.6647
1438 1422005981 40.0337
1439 1422007202 39.6055
1440 1422008422 39.6764
1441 1422009643 39.8889
1442 1422010864 40.2961
1443 1422012084 39.7224
1444 1422013305 39.9954
1445 1422014526 39.7935
1446 1422015747 39.4521
1447 1422016967 40.1051
1448 1422018188 39.5073
1449 1422019409 39.7347
1450 1422020629 39.6655
1451 1422021850 39.6887
1452 1422023071 39.3898
1453 1422024291 39.8876
1454 1422025512 39.3304
1455 1422026733 39.6368
1456 1422027954 39.8759
1457 1422029174 40.0441
1458 1422030395 39.6933
1459 1422031616 39.2463
1460 1422032836 39.8285
1461 1422034057 39.4976
1462 1422035278 39.8991
1463 1422036499 39.7432
1464 1422037719 39.4233
1465 1422038940 39.6414
1466 1422040161 40.5159
1467 1422041381 39.9928
1468 1422042602 39.9204
1469 1422043823 39.8343
1470 1422045043 39.1483
1471 1422046264 40.2232
1472 1422047485 40.0566
1473 1422048706 39.9567
1474 1422049926 40.4207
1475 1422051147 39.9396
1476 1422052368 39.6445
1477 1422053588 39.8540
1478 1422054809 39.8350
1479 1422056030 39.2825
1480 1422057250 39.3870
1481 1422058471 39.7176
1482 1422059692 39.8526
1483 1422060913 39.7904
1484 1422062133 40.3568
1485 1422063354 39.9956
1486 1422064575 39.7582
1487 1422065795 39.9419
1488 1422067016 40.3710
1489 1422068237 40.1209
1490 1422069458 39.9077
1491 1422070678 40.0756
1492 1422071899 40.5500
1493 1422073120 39.7804
1494 1422074340 40.2302
1495 1422075561 39.5397
1496 1422076782 39.7635
1497 1422078002 39.4389
1498 1422079223 39.8119
1499 1422080444 40.3934
1500 1422081665 40.0838
1501 1422082885 39.8339
1502 1422084106 39.8786
1503 1422085327 39.9073
1504 1422086547 40.0817
1505 1422087768 39.8530
1506 1422088989 40.3479
1507 1422090209 39.7499
1508 1422091430 39.7613
1509 1422092651 40.4613
1510 1422093872 41.0419
1511 1422095092 40.3667
1512 1422096313 39.7349
1513 1422097534 40.1583
1514 1422098754 40.0181
1515 1422099975 40.3623
1516 1422101196 40.4266
1517 1422102416 39.9539
1518 1422103637 39.9580
1519 1422104858 39.9551
1520 1422106079 40.0068
1521 1422107299 40.5285
1522 1422108520 40.3257
1523 1422109741 39.9666
1524 1422110961 40.2728
1525 1422112182 39.7181
1526 1422113403 40.2710
1527 1422114624 40.4402
1528 1422115844 40.4033
1529 1422117065 39.6860
1530 1422118286 40.3772
1531 1422119506 40.5830
1532 1422120727 40.9457
1533 1422121948 40.2420
1534 1422123168 40.0175
1535 1422124389 40.0982
1536 1422125610 40.2914
1537 1422126831 40.3569
1538 1422128051 40.7500
1539 1422129272 40.4969
1540 1422130493 39.9817
1541 1422131713 40.5695
1542 1422132934 40.5508
1543 1422134155 40.4461
1544 1422135375 40.5665
1545 1422136596 40.4315
1546 1422137817 40.2338
1547 1422139038 40.7686
1548 1422140258 39.7969
1549 1422141479 40.9541
1550 1422142700 40.7608
1551 1422143920 40.9923
1552 1422145141 40.7655
1553 1422146362 40.3468
1554 1422147583 40.7749
1555 1422148803 40.9341
1556 1422150024 40.7100
1557 1422151245 40.9329
1558 1422152465 40.9371
1559 1422153686 41.0639
1560 1422154907 40.4004
1561 1422156127 40.3631
1562 1422157348 40.1438
1563 1422158569 39.8514
1564 1422159790 40.5303
1565 1422161010 39.7388
1566 1422162231 40.2340
1567 1422163452 39.8975
1568 1422164672 40.1206
1569 1422165893 40.5896
1570 1422167114 40.4836
1571 1422168334 40.6864
1572 1422169555 40.2738
1573 1422170776 40.6985
1574 1422171997 40.6691
1575 1422173217 40.2909
1576 1422174438 40.1755
1577 1422175659 40.4547
1578 1422176879 40.7114
1579 1422178100 41.0309
1580 1422179321 40.6770
1581 1422180541 40.5046
1582 1422181762 40.2542
1583 1422182983 40.7332
1584 1422184204 40.2087
1585 1422185424 40.4300
1586 1422186645 40.8080
1587 1422187866 40.7700
1588 1422189086 40.2794
1589 1422190307 40.4603
1590 1422191528 40.9198
1591 1422192749 40.8849
1592 1422193969 40.9360
1593 1422195190 40.8525
1594 1422196411 41.1575
1595 1422197631 44.0960
1596 1422198852 46.8588
1597 1422200073 41.9728
1598 1422201293 41.1609
1599 1422202514 41.3205
1600 1422203735 40.4277
1601 1422204956 40.4088
1602 1422206176 40.8873
1603 1422207397 40.9666
1604 1422208618 40.1730
1605 1422209838 40.4905
1606 1422211059 40.3775
1607 1422212280 40.0752
1608 1422213500 40.7496
1609 1422214721 40.9578
1610 1422215942 41.1096
1611 1422217163 40.7779
1612 1422218383 40.7865
1613 1422219604 40.1350
1614 1422220825 40.0401
1615 1422222045 40.3921
1616 1422223266 39.9706
1617 1422224487 39.7266
1618 1422225708 40.1880
1619 1422226928 40.1374
1620 1422228149 40.4096
1621 1422229370 40.7027
1622 1422230590 40.5921
1623 1422231811 40.2359
1624 1422233032 40.5492
1625 1422234252 40.9837
1626 1422235473 40.4017
1627 1422236694 40.3919
1628 1422237915 40.4285
1629 1422239135 40.7626
1630 1422240356 40.3182
1631 1422241577 40.2488
1632 1422242797 40.0054
1633 1422244018 40.3524
1634 1422245239 39.7041
1635 1422246459 40.3622
1636 1422247680 39.9987
1637 1422248901 40.1658
1638 1422250122 39.6309
1639 1422251342 39.5373
1640 1422252563 39.8499
1641 1422253784 40.5396
1642 1422255004 40.4349
1643 1422256225 40.7208
1644 1422257446 39.9649
1645 1422258666 39.4658
1646 1422259887 40.3036
1647 1422261108 39.9976
1648 1422262329 39.8272
1649 1422263549 39.6266
1650 1422264770 40.0036
1651 1422265991 40.1359
1652 1422267211 40.3519
1653 1422268432 40.0929
1654 1422269653 39.2074
1655 1422270874 39.1578
1656 1422272094 39.5375
1657 1422273315 39.9758
1658 1422274536 39.6220
1659 1422275756 38.9618
1660 1422276977 39.3436
1661 1422278198 39.3768
1662 1422279418 39.6395
1663 1422280639 39.8913
1664 1422281860 39.5820
1665 1422283081 39.6824
1666 1422284301 39.0684
1667 1422285522 38.8473
1668 1422286743 38.3841
1669 1422287963 38.8411
1670 1422289184 39.2339
1671 1422290405 39.3101
1672 1422291625 39.2019
1673 1422292846 38.8527
1674 1422294067 39.4591
1675 1422295288 38.9191
1676 1422296508 39.1486
1677 1422297729 38.7092
1678 1422298950 38.7765
1679 1422300170 38.5081
1680 1422301391 38.6893
1681 1422302612 38.8192
1682 1422303833 38.9686
1683 1422305053 38.9261
1684 1422306274 38.9500
1685 1422307495 38.5549
1686 1422308715 38.9313
1687 1422309936 38.5010
1688 1422311157 38.2139
1689 1422312377 38.1883
1690 1422313598 38.5557
1691 1422314819 38.3357
1692 1422316040 38.3524
1693 1422317260 38.4591
1694 1422318481 38.1859
1695 1422319702 38.0392
1696 1422320922 37.9726
1697 1422322143 37.7161
1698 1422323364 37.6874
1699 1422324584 37.5053
1700 1422325805 38.0188
1701 1422327026 37.8528
1702 1422328247 37.6044
1703 1422329467 37.3060
1704 1422330688 37.4050
1705 1422331909 37.4610
1706 1422333129 37.5231
1707 1422334350 36.7610
1708 1422335571 36.9920
1709 1422336791 36.8692
1710 1422338012 36.9856
1711 1422339233 37.5898
1712 1422340454 36.9022
1713 1422341674 36.8313
1714 1422342895 37.2023
1715 1422344116 37.0138
1716 1422345336 36.8357
1717 1422346557 36.2870
1718 1422347778 36.5597
1719 1422348999 36.4257
1720 1422350219 36.5149
1721 1422351440 36.6617
1722 1422352661 36.2964
1723 1422353881 36.3840
1724 1422355102 36.3951
1725 1422356323 36.4826
1726 1422357543 36.1988
1727 1422358764 36.1672
1728 1422359985 35.7715
1729 1422361206 35.5121
1730 1422362426 36.1512
1731 1422363647 35.9468
1732 1422364868 35.6062
1733 1422366088 34.9532
1734 1422367309 35.2102
1735 1422368530 35.2140
1736 1422369750 35.5575
1737 1422370971 35.4197
1738 1422372192 35.2615
1739 1422373413 35.0593
1740 1422374633 34.9301
1741 1422375854 34.9639
1742 1422377075 34.6943
1743 1422378295 35.1240
1744 1422379516 34.9002
1745 1422380737 34.8329
1746 1422381958 34.2225
1747 1422383178 34.3734
1748 1422384399 34.0688
1749 1422385620 34.5732
1750 1422386840 34.0125
1751 1422388061 34.3965
1752 1422389282 33.8150
1753 1422390502 33.9276
1754 1422391723 34.1549
1755 1422392944 33.6868
1756 1422394165 33.5954
1757 1422395385 33.6667
1758 1422396606 33.7420
1759 1422397827 33.7957
1760 1422399047 33.7234
1761 1422400268 33.6316
1762 1422401489 33.3935
1763 1422402709 33.4061
1764 1422403930 32.7917
1765 1422405151 32.7589
1766 1422406372 33.1560
1767 1422407592 32.4020
1768 1422408813 32.3979
1769 1422410034 32.6577
1770 1422411254 32.3869
1771 1422412475 32.2473
1772 1422413696 32.1625
1773 1422414916 31.7597
1774 1422416137 31.6764
1775 1422417358 31.9460
1776 1422418579 31.3588
1777 1422419799 31.6433
1778 1422421020 31.5733
1779 1422422241 31.6339
1780 1422423461 31.6333
1781 1422424682 31.5124
1782 1422425903 30.8558
1783 1422427124 31.5187
1784 1422428344 31.3185
1785 1422429565 31.0658
1786 1422430786 31.4804
1787 1422432006 30.3323
1788 1422433227 30.7725
1789 1422434448 30.1994
1790 1422435668 30.3388
1791 1422436889 30.2351
1792 1422438110 30.0925
1793 1422439331 30.4506
1794 1422440551 29.7590
1795 1422441772 29.6112
1796 1422442993 29.9132
1797 1422444213 29.9174
1798 1422445434 29.3419
1799 1422446655 29.6840
1800 1422447875 29.3508
1801 1422449096 29.1030
1802 1422450317 28.7719
1803 1422451538 29.1005
1804 1422452758 28.8051
1805 1422453979 28.9498
1806 1422455200 28.7381
1807 1422456420 28.6790
1808 1422457641 28.4964
1809 1422458862 28.2623
1810 1422460083 28.1504
1811 1422461303 27.8783
1812 1422462524 27.8307
1813 1422463745 28.0465
1814 1422464965 27.9117
1815 1422466186 27.9828
1816 1422467407 27.5022
1817 1422468627 27.6314
1818 1422469848 27.6000
1819 1422471069 27.1883
1820 1422472290 27.3644
1821 1422473510 27.2703
1822 1422474731 26.8452
1823 1422475952 27.3980
1824 1422477172 26.5723
1825 1422478393 26.7961
1826 1422479614 26.4899
1827 1422480834 26.3566
1828 1422482055 26.4703
1829 1422483276 26.0328
1830 1422484497 26.3519
1831 1422485717 25.8349
1832 1422486938 25.9250
1833 1422488159 25.3771
1834 1422489379 24.9893
1835 1422490600 25.1208
1836 1422491821 25.3170
1837 1422493041 25.2519
1838 1422494262 24.8713
1839 1422495483 25.0585
1840 1422496704 25.0451
1841 1422497924 24.8443
1842 1422499145 24.7390
1843 1422500366 25.2674
1844 1422501586 24.5038
1845 1422502807 24.7496
1846 1422504028 24.5061
1847 1422505249 24.2597
1848 1422506469 24.0328
1849 1422507690 23.8435
1850 1422508911 23.8414
1851 1422510131 23.6169
1852 1422511352 23.4940
1853 1422512573 23.7167
1854 1422513793 23.4959
1855 1422515014 23.4555
1856 1422516235 23.0913
1857 1422517456 22.8879
1858 1422518676 22.8123
1859 1422519897 22.8389
1860 1422521118 22.5215
1861 1422522338 22.4441
1862 1422523559 22.3102
1863 1422524780 22.1133
1864 1422526000 22.0426
1865 1422527221 22.2455
1866 1422528442 21.9383
1867 1422529663 21.6623
1868 1422530883 21.4847
1869 1422532104 21.4378
1870 1422533325 21.3791
1871 1422534545 21.1710
1872 1422535766 21.3834
1873 1422536987 21.2997
1874 1422538208 21.1349
1875 1422539428 20.9824
1876 1422540649 20.7535
1877 1422541870 20.6052
1878 1422543090 20.3582
1879 1422544311 20.3441
1880 1422545532 20.2711
1881 1422546752 20.1279
1882 1422547973 20.2331
1883 1422549194 19.6933
1884 1422550415 19.6632
1885 1422551635 19.6264
1886 1422552856 19.4301
1887 1422554077 19.3522
1888 1422555297 19.1486
1889 1422556518 19.2787
1890 1422557739 18.9363
1891 1422558959 18.7784
1892 1422560180 18.7054
1893 1422561401 19.0697
1894 1422562622 18.7632
1895 1422563842 18.5842
1896 1422565063 18.4559
1897 1422566284 18.2067
1898 1422567504 18.1386
1899 1422568725 18.1070
1900 1422569946 17.9084
1901 1422571166 18.0168
1902 1422572387 17.7936
1903 1422573608 17.7389
1904 1422574829 17.5957
1905 1422576049 17.3662
1906 1422577270 17.0999
1907 1422578491 17.0900
1908 1422579711 17.0339
1909 1422580932 16.7199
1910 1422582153 16.7811
1911 1422583374 16.6863
1912 1422584594 16.6284
1913 1422585815 16.6499
1914 1422587036 16.6425
1915 1422588256 16.3312
1916 1422589477 16.0390
1917 1422590698 16.0865
1918 1422591918 15.8323
1919 1422593139 15.8030
1920 1422594360 15.6627
1921 1422595581 15.7145
1922 1422596801 15.5831
1923 1422598022 15.5526
1924 1422599243 15.4702
1925 1422600463 15.3387
1926 1422601684 15.1436
1927 1422602905 15.1097
1928 1422604125 15.1763
1929 1422605346 15.0563
1930 1422606567 14.7589
1931 1422607788 14.5328
1932 1422609008 14.7872
1933 1422610229 14.5404
1934 1422611450 14.2616
1935 1422612670 14.3318
1936 1422613891 14.3139
1937 1422615112 14.0451
1938 1422616333 14.0587
1939 1422617553 14.2128
1940 1422618774 14.0289
1941 1422619995 13.7967
1942 1422621215 13.6350
1943 1422622436 13.5316
1944 1422623657 13.5621
1945 1422624877 13.4451
1946 1422626098 13.3273
1947 1422627319 13.3452
1948 1422628540 13.2338
1949 1422629760 13.1296
1950 1422630981 13.0375
1951 1422632202 12.8845
1952 1422633422 12.9970
1953 1422634643 12.9225
1954 1422635864 12.8453
1955 1422637084 12.5128
1956 1422638305 12.5154
1957 1422639526 12.4962
1958 1422640747 12.4266
1959 1422641967 12.1647
1960 1422643188 11.9981
1961 1422644409 11.9892
1962 1422645629 11.9482
1963 1422646850 11.9124
1964 1422648071 11.7733
1965 1422649291 11.7382
1966 1422650512 11.7859
1967 1422651733 11.6840
1968 1422652954 11.6763
1969 1422654174 11.3993
1970 1422655395 11.5361
1971 1422656616 11.3923
1972 1422657836 11.3360
1973 1422659057 11.2301
1974 1422660278 11.2250
1975 1422661499 11.0286
1976 1422662719 11.0077
1977 1422663940 10.9240
1978 1422665161 10.8833
1979 1422666381 10.8193
1980 1422667602 10.7330
1981 1422668823 10.6356
1982 1422670043 10.6447
1983 1422671264 10.5546
1984 1422672485 10.4466
1985 1422673706 10.5588
1986 1422674926 10.4165
1987 1422676147 10.3383
1988 1422677368 10.3970
1989 1422678588 10.1906
1990 1422679809 10.1303
1991 1422681030 10.0943
1992 1422682250 9.9903
1993 1422683471 9.9423
1994 1422684692 9.9200
1995 1422685913 9.9274
1996 1422687133 9.8543
1997 1422688354 9.7888
1998 1422689575 9.7027
1999 1422690795 9.6513
2000 1422692016 9.7061
2001 1422693237 9.5402
2002 1422694458 9.4314
2003 1422695678 9.3177
2004 1422696899 9.5020
2005 1422698120 9.3928
2006 1422699340 9.3899
2007 1422700561 9.6319
2008 1422701782 9.3149
2009 1422703002 9.2513
2010 1422704223 9.1302
2011 1422705444 9.0617
2012 1422706665 9.1376
2013 1422707885 9.2056
2014 1422709106 9.0704
2015 1422710327 9.0602
2016 1422711547 8.8357
2017 1422712768 8.8367
2018 1422713989 8.7746
2019 1422715209 8.8321
2020 1422716430 8.9060
2021 1422717651 8.8221
2022 1422718872 8.8120
2023 1422720092 8.7677
2024 1422721313 8.7397
2025 1422722534 8.7579
2026 1422723754 8.6537
2027 1422724975 8.6911
2028 1422726196 8.6538
2029 1422727416 8.5139
2030 1422728637 8.5044
2031 1422729858 8.4435
2032 1422731079 8.4652
2033 1422732299 8.4245
2034 1422733520 8.4943
2035 1422734741 8.4317
2036 1422735961 8.4371
2037 1422737182 8.5170
2038 1422738403 8.5145
2039 1422739624 8.5371
2040 1422740844 8.3280
2041 1422742065 8.2677
2042 1422743286 8.3832
2043 1422744506 8.3632
2044 1422745727 8.4660
2045 1422746948 8.4439
2046 1422748168 8.2910
2047 1422749389 8.6005
