# File: 20-06-07T195014.ast
# NOTEA     = None Attached.  RTLSDR Dongle Test
# NOTEB     = Spectral Integration
# OBSERVER  = Science Aficionado
# DEVICE    = rtl=0,bias=1
# DATADIR   = ../data/
# SITE      = None Attached.  RTLSDR Dongle Test
# CITY      = Seattle
# REGION    = Washington
# COUNTRY   = US
# TELTYPE   = UW CSE 490W Dish
# FRAME     = TOPO
# GAIN1     = 49.0
# GAIN2     = 11.0
# GAIN3     = 11.0
# GAIN4     = 0.0
# Count     = 2500
# CenterFreq= 1421500000.0
# Bandwidth = 2500000.0
# Duration  = 41.945563
# DeltaX    = 5859.375
# TSYS      = 200.0
# TRX       = 100.0
# TRMS      = 2.0
# TINT      = 1.0
# KPERC     = 100.0
# GAINFACT  = 1.0
# BUNIT     = Counts
# NCHAN     = 2048
# NSPEC     = 1
# NTIME     = 0
# NSAMPLES  = 0
# EPEAK     = 4.10875183718
# ERMS      = 0.995973393526
# EMJD      = 58568.808999981004 
# REFCHAN   = 1024.0
# REFSAMPL  = 256.0
# NAVE      = 50
# NMEDIAN   = 1024
# Fft_rate  = 5000
# UTC       = 2020-06-07 19:50:14.994813
# SECONDS   =       0.0000000000 
# LST       = 09:06:09.770
# AZ        = 180.0
# EL        = 90.0
# TELLON    = -57:41:09.900
# TELLAT    = +47:39:13.800
# RA        = 09:03:25.020
# DEC       = +47:48:48.600
# GALLON    = 171:45:14.40
# GALLAT    = +41:33:16.90
# ALT_SUN   = +36:37:18.0
# AZ_SUN    = +264:26:31.7
# ETAA      = 0.8
# ETAB      = 0.99
# POLANGLE  = 0.0
# TELSIZEAM = 1.0
# TELSIZEBM = 1.0
# AST_VERS  = 05.01
0000 1420250610 7.9803
0001 1420251831 8.0875
0002 1420253051 7.9605
0003 1420254272 8.0679
0004 1420255493 7.9382
0005 1420256713 8.0759
0006 1420257934 8.0069
0007 1420259155 7.9151
0008 1420260375 8.0927
0009 1420261596 8.0392
0010 1420262817 8.0016
0011 1420264038 7.9599
0012 1420265258 8.0102
0013 1420266479 8.2170
0014 1420267700 8.1095
0015 1420268920 8.1934
0016 1420270141 8.1969
0017 1420271362 8.1022
0018 1420272583 8.0264
0019 1420273803 8.0650
0020 1420275024 8.2063
0021 1420276245 8.2642
0022 1420277465 8.1901
0023 1420278686 8.2333
0024 1420279907 8.3090
0025 1420281127 8.2312
0026 1420282348 8.2492
0027 1420283569 8.3612
0028 1420284790 8.3295
0029 1420286010 8.4249
0030 1420287231 8.4674
0031 1420288452 8.4618
0032 1420289672 8.4299
0033 1420290893 8.5752
0034 1420292114 8.5969
0035 1420293334 8.6544
0036 1420294555 8.6190
0037 1420295776 8.6162
0038 1420296997 8.6779
0039 1420298217 8.8372
0040 1420299438 9.0091
0041 1420300659 9.3310
0042 1420301879 8.9656
0043 1420303100 8.9607
0044 1420304321 8.9365
0045 1420305541 8.8977
0046 1420306762 9.0560
0047 1420307983 9.1011
0048 1420309204 9.1782
0049 1420310424 9.3217
0050 1420311645 9.2218
0051 1420312866 9.2387
0052 1420314086 9.3645
0053 1420315307 9.3280
0054 1420316528 9.5019
0055 1420317749 9.4679
0056 1420318969 9.5384
0057 1420320190 9.6072
0058 1420321411 10.0401
0059 1420322631 9.9081
0060 1420323852 9.8332
0061 1420325073 9.8181
0062 1420326293 10.0180
0063 1420327514 10.1733
0064 1420328735 10.1033
0065 1420329956 9.9096
0066 1420331176 10.0535
0067 1420332397 10.1301
0068 1420333618 10.2388
0069 1420334838 10.2675
0070 1420336059 10.2696
0071 1420337280 10.3387
0072 1420338500 10.4813
0073 1420339721 10.5375
0074 1420340942 10.6439
0075 1420342163 10.6959
0076 1420343383 10.7947
0077 1420344604 10.7980
0078 1420345825 10.8234
0079 1420347045 10.8588
0080 1420348266 10.7892
0081 1420349487 11.0635
0082 1420350708 11.0987
0083 1420351928 11.0202
0084 1420353149 11.2416
0085 1420354370 11.2131
0086 1420355590 11.2522
0087 1420356811 11.3664
0088 1420358032 11.3892
0089 1420359252 11.4252
0090 1420360473 11.5298
0091 1420361694 11.6145
0092 1420362915 11.6046
0093 1420364135 11.5876
0094 1420365356 11.8498
0095 1420366577 12.1299
0096 1420367797 12.0787
0097 1420369018 12.0602
0098 1420370239 12.1093
0099 1420371459 12.2117
0100 1420372680 12.2258
0101 1420373901 12.3437
0102 1420375122 12.4359
0103 1420376342 12.7006
0104 1420377563 12.6283
0105 1420378784 12.6510
0106 1420380004 12.8411
0107 1420381225 12.8353
0108 1420382446 12.8945
0109 1420383666 13.0480
0110 1420384887 13.0143
0111 1420386108 13.0030
0112 1420387329 13.3341
0113 1420388549 13.7459
0114 1420389770 14.0020
0115 1420390991 13.6179
0116 1420392211 13.4820
0117 1420393432 13.5975
0118 1420394653 13.5438
0119 1420395874 13.9049
0120 1420397094 13.9758
0121 1420398315 13.8986
0122 1420399536 13.9299
0123 1420400756 14.0300
0124 1420401977 14.2535
0125 1420403198 14.1694
0126 1420404418 14.4155
0127 1420405639 14.3697
0128 1420406860 14.3276
0129 1420408081 14.6952
0130 1420409301 14.8607
0131 1420410522 14.8382
0132 1420411743 14.7789
0133 1420412963 14.8932
0134 1420414184 15.1754
0135 1420415405 15.3486
0136 1420416625 15.6525
0137 1420417846 15.3537
0138 1420419067 15.5613
0139 1420420288 15.4071
0140 1420421508 15.4049
0141 1420422729 15.5244
0142 1420423950 15.6272
0143 1420425170 15.8516
0144 1420426391 15.9847
0145 1420427612 16.0904
0146 1420428833 16.2214
0147 1420430053 16.3575
0148 1420431274 16.3619
0149 1420432495 16.6911
0150 1420433715 16.7121
0151 1420434936 16.7707
0152 1420436157 16.5026
0153 1420437377 16.7726
0154 1420438598 16.7719
0155 1420439819 17.1111
0156 1420441040 17.2566
0157 1420442260 17.3913
0158 1420443481 17.5571
0159 1420444702 17.9267
0160 1420445922 17.6165
0161 1420447143 17.7451
0162 1420448364 17.7631
0163 1420449584 17.8287
0164 1420450805 17.7939
0165 1420452026 17.9571
0166 1420453247 18.0918
0167 1420454467 18.2551
0168 1420455688 19.0986
0169 1420456909 20.5432
0170 1420458129 18.7949
0171 1420459350 19.0015
0172 1420460571 18.9932
0173 1420461791 18.6893
0174 1420463012 18.8154
0175 1420464233 18.9763
0176 1420465454 18.9639
0177 1420466674 19.4342
0178 1420467895 19.4434
0179 1420469116 19.2827
0180 1420470336 19.5707
0181 1420471557 19.4217
0182 1420472778 19.8126
0183 1420473999 19.5594
0184 1420475219 20.1689
0185 1420476440 19.9296
0186 1420477661 20.2412
0187 1420478881 20.0523
0188 1420480102 20.5564
0189 1420481323 20.3055
0190 1420482543 20.6095
0191 1420483764 20.7305
0192 1420484985 20.8730
0193 1420486206 20.7021
0194 1420487426 20.8153
0195 1420488647 21.3288
0196 1420489868 21.1367
0197 1420491088 21.1080
0198 1420492309 21.3000
0199 1420493530 21.5386
0200 1420494750 21.4994
0201 1420495971 22.0788
0202 1420497192 21.9307
0203 1420498413 22.5261
0204 1420499633 23.0467
0205 1420500854 22.0537
0206 1420502075 22.1286
0207 1420503295 22.5432
0208 1420504516 22.5899
0209 1420505737 22.5803
0210 1420506958 22.5469
0211 1420508178 22.5554
0212 1420509399 22.3740
0213 1420510620 22.6638
0214 1420511840 23.0473
0215 1420513061 23.3481
0216 1420514282 23.1318
0217 1420515502 23.3364
0218 1420516723 23.4346
0219 1420517944 23.5248
0220 1420519165 23.1789
0221 1420520385 23.5107
0222 1420521606 23.8666
0223 1420522827 24.1261
0224 1420524047 25.7844
0225 1420525268 25.3451
0226 1420526489 24.5780
0227 1420527709 24.4305
0228 1420528930 24.4123
0229 1420530151 24.5147
0230 1420531372 24.5219
0231 1420532592 24.6070
0232 1420533813 24.6867
0233 1420535034 25.1091
0234 1420536254 24.6608
0235 1420537475 25.2086
0236 1420538696 25.0121
0237 1420539916 25.3966
0238 1420541137 25.3874
0239 1420542358 25.5502
0240 1420543579 25.4264
0241 1420544799 25.6226
0242 1420546020 25.8349
0243 1420547241 25.8841
0244 1420548461 25.9083
0245 1420549682 25.9274
0246 1420550903 26.4123
0247 1420552124 26.2539
0248 1420553344 26.4021
0249 1420554565 26.5337
0250 1420555786 26.6683
0251 1420557006 26.8344
0252 1420558227 27.0928
0253 1420559448 26.8764
0254 1420560668 26.9356
0255 1420561889 27.3537
0256 1420563110 27.2590
0257 1420564331 27.6648
0258 1420565551 27.4344
0259 1420566772 27.4852
0260 1420567993 27.2940
0261 1420569213 27.5626
0262 1420570434 27.8531
0263 1420571655 27.6348
0264 1420572875 27.9214
0265 1420574096 27.9002
0266 1420575317 27.8059
0267 1420576538 27.9051
0268 1420577758 28.0690
0269 1420578979 28.6462
0270 1420580200 28.5803
0271 1420581420 28.3858
0272 1420582641 28.4650
0273 1420583862 28.5353
0274 1420585083 28.8735
0275 1420586303 29.3012
0276 1420587524 29.4928
0277 1420588745 29.1835
0278 1420589965 29.9830
0279 1420591186 35.9928
0280 1420592407 35.3847
0281 1420593627 30.6569
0282 1420594848 29.8966
0283 1420596069 29.5784
0284 1420597290 29.6503
0285 1420598510 29.7803
0286 1420599731 30.0915
0287 1420600952 29.7591
0288 1420602172 29.7785
0289 1420603393 29.7737
0290 1420604614 30.1838
0291 1420605834 30.5624
0292 1420607055 30.2854
0293 1420608276 30.1519
0294 1420609497 30.8198
0295 1420610717 30.8048
0296 1420611938 30.2738
0297 1420613159 30.6308
0298 1420614379 30.5764
0299 1420615600 30.3449
0300 1420616821 31.0208
0301 1420618041 31.2768
0302 1420619262 30.9499
0303 1420620483 31.2815
0304 1420621704 31.2685
0305 1420622924 31.2760
0306 1420624145 31.0544
0307 1420625366 31.4958
0308 1420626586 31.3335
0309 1420627807 31.4896
0310 1420629028 31.5259
0311 1420630249 31.8219
0312 1420631469 31.5730
0313 1420632690 32.3009
0314 1420633911 32.0110
0315 1420635131 33.5581
0316 1420636352 32.3650
0317 1420637573 32.3826
0318 1420638793 32.1509
0319 1420640014 32.6890
0320 1420641235 32.3441
0321 1420642456 32.3873
0322 1420643676 32.4386
0323 1420644897 32.9759
0324 1420646118 32.6164
0325 1420647338 32.7293
0326 1420648559 32.6709
0327 1420649780 32.4534
0328 1420651000 32.5266
0329 1420652221 32.6599
0330 1420653442 32.6209
0331 1420654663 32.9350
0332 1420655883 33.3363
0333 1420657104 33.2867
0334 1420658325 34.9468
0335 1420659545 36.7185
0336 1420660766 34.5505
0337 1420661987 33.5558
0338 1420663208 33.2974
0339 1420664428 33.3925
0340 1420665649 33.5908
0341 1420666870 33.3643
0342 1420668090 33.7158
0343 1420669311 33.9789
0344 1420670532 33.9004
0345 1420671752 34.1900
0346 1420672973 33.9755
0347 1420674194 33.5197
0348 1420675415 33.4478
0349 1420676635 33.9342
0350 1420677856 33.8773
0351 1420679077 34.1425
0352 1420680297 33.9096
0353 1420681518 34.0393
0354 1420682739 34.6195
0355 1420683959 34.6535
0356 1420685180 34.8442
0357 1420686401 35.0249
0358 1420687622 34.4395
0359 1420688842 34.1685
0360 1420690063 34.1764
0361 1420691284 34.9137
0362 1420692504 34.9243
0363 1420693725 34.8978
0364 1420694946 34.7671
0365 1420696166 34.6927
0366 1420697387 33.9770
0367 1420698608 34.6857
0368 1420699829 35.0737
0369 1420701049 35.5052
0370 1420702270 35.3269
0371 1420703491 34.6889
0372 1420704711 34.9212
0373 1420705932 34.8561
0374 1420707153 35.1302
0375 1420708374 35.5766
0376 1420709594 34.9187
0377 1420710815 35.6114
0378 1420712036 35.2487
0379 1420713256 35.2361
0380 1420714477 34.8610
0381 1420715698 34.7217
0382 1420716918 35.2589
0383 1420718139 35.3144
0384 1420719360 35.2859
0385 1420720581 35.6197
0386 1420721801 35.0365
0387 1420723022 35.7203
0388 1420724243 35.6205
0389 1420725463 35.5845
0390 1420726684 35.6724
0391 1420727905 35.8473
0392 1420729125 35.5441
0393 1420730346 35.9473
0394 1420731567 35.2564
0395 1420732788 35.7061
0396 1420734008 35.3904
0397 1420735229 36.0139
0398 1420736450 35.8274
0399 1420737670 35.1186
0400 1420738891 35.8404
0401 1420740112 35.7794
0402 1420741333 36.1216
0403 1420742553 35.7383
0404 1420743774 35.8444
0405 1420744995 36.1384
0406 1420746215 36.5231
0407 1420747436 36.4351
0408 1420748657 36.4349
0409 1420749877 36.4997
0410 1420751098 35.8174
0411 1420752319 37.2970
0412 1420753540 36.9863
0413 1420754760 36.3435
0414 1420755981 35.9418
0415 1420757202 36.2247
0416 1420758422 36.3233
0417 1420759643 35.7524
0418 1420760864 36.4950
0419 1420762084 36.1474
0420 1420763305 36.8237
0421 1420764526 36.4961
0422 1420765747 35.9597
0423 1420766967 36.2968
0424 1420768188 36.3080
0425 1420769409 36.6635
0426 1420770629 36.9425
0427 1420771850 36.3181
0428 1420773071 35.6643
0429 1420774291 36.3084
0430 1420775512 36.5165
0431 1420776733 36.4210
0432 1420777954 36.6193
0433 1420779174 36.3484
0434 1420780395 36.9818
0435 1420781616 36.8064
0436 1420782836 36.5454
0437 1420784057 36.4269
0438 1420785278 36.8100
0439 1420786499 36.3022
0440 1420787719 36.4040
0441 1420788940 36.7622
0442 1420790161 36.0130
0443 1420791381 36.4552
0444 1420792602 36.4400
0445 1420793823 37.1050
0446 1420795043 36.7062
0447 1420796264 37.0172
0448 1420797485 36.5567
0449 1420798706 36.6317
0450 1420799926 37.4118
0451 1420801147 38.9365
0452 1420802368 40.8673
0453 1420803588 37.4100
0454 1420804809 36.8736
0455 1420806030 36.1726
0456 1420807250 36.1996
0457 1420808471 36.5775
0458 1420809692 36.4871
0459 1420810913 36.7261
0460 1420812133 36.7200
0461 1420813354 36.4795
0462 1420814575 37.0511
0463 1420815795 36.9460
0464 1420817016 37.1638
0465 1420818237 37.3096
0466 1420819458 36.5656
0467 1420820678 36.8968
0468 1420821899 36.5946
0469 1420823120 36.8175
0470 1420824340 37.6652
0471 1420825561 36.6943
0472 1420826782 36.5877
0473 1420828002 36.7748
0474 1420829223 36.9889
0475 1420830444 36.8951
0476 1420831665 37.2190
0477 1420832885 36.8968
0478 1420834106 36.6663
0479 1420835327 37.1371
0480 1420836547 36.6059
0481 1420837768 37.2499
0482 1420838989 37.0877
0483 1420840209 36.2745
0484 1420841430 36.8240
0485 1420842651 36.6589
0486 1420843872 37.1266
0487 1420845092 36.9544
0488 1420846313 36.9900
0489 1420847534 36.4798
0490 1420848754 36.9715
0491 1420849975 36.1057
0492 1420851196 36.5595
0493 1420852416 36.7116
0494 1420853637 37.0098
0495 1420854858 36.7999
0496 1420856079 36.4173
0497 1420857299 36.8475
0498 1420858520 36.6273
0499 1420859741 36.5763
0500 1420860961 37.1324
0501 1420862182 36.8418
0502 1420863403 37.0158
0503 1420864624 37.4547
0504 1420865844 36.6928
0505 1420867065 37.0048
0506 1420868286 36.4758
0507 1420869506 36.7925
0508 1420870727 36.5616
0509 1420871948 36.5531
0510 1420873168 36.2309
0511 1420874389 36.5046
0512 1420875610 36.7527
0513 1420876831 36.9020
0514 1420878051 36.5513
0515 1420879272 36.5646
0516 1420880493 36.9070
0517 1420881713 36.9002
0518 1420882934 37.8415
0519 1420884155 37.0719
0520 1420885375 36.5145
0521 1420886596 36.5301
0522 1420887817 36.7330
0523 1420889038 36.6547
0524 1420890258 36.6046
0525 1420891479 36.5490
0526 1420892700 36.1758
0527 1420893920 36.7392
0528 1420895141 36.2126
0529 1420896362 36.7760
0530 1420897583 36.9145
0531 1420898803 36.8197
0532 1420900024 36.7560
0533 1420901245 36.8666
0534 1420902465 35.7988
0535 1420903686 36.7551
0536 1420904907 36.1680
0537 1420906127 36.3505
0538 1420907348 36.3038
0539 1420908569 36.0596
0540 1420909790 36.3847
0541 1420911010 36.6657
0542 1420912231 36.0634
0543 1420913452 36.2457
0544 1420914672 36.8002
0545 1420915893 36.4389
0546 1420917114 36.4458
0547 1420918334 36.3477
0548 1420919555 36.3561
0549 1420920776 36.9513
0550 1420921997 36.2769
0551 1420923217 36.3201
0552 1420924438 36.3914
0553 1420925659 36.5615
0554 1420926879 36.7465
0555 1420928100 36.9723
0556 1420929321 36.5979
0557 1420930541 36.4031
0558 1420931762 36.3568
0559 1420932983 36.6663
0560 1420934204 36.6500
0561 1420935424 36.3679
0562 1420936645 36.5468
0563 1420937866 36.0808
0564 1420939086 36.5753
0565 1420940307 36.0808
0566 1420941528 35.7563
0567 1420942749 36.3871
0568 1420943969 36.6796
0569 1420945190 36.3103
0570 1420946411 35.8483
0571 1420947631 36.2163
0572 1420948852 36.5951
0573 1420950073 40.0680
0574 1420951293 38.1756
0575 1420952514 36.6620
0576 1420953735 36.6660
0577 1420954956 36.1147
0578 1420956176 36.1178
0579 1420957397 35.5490
0580 1420958618 36.3135
0581 1420959838 36.3457
0582 1420961059 36.2474
0583 1420962280 36.5573
0584 1420963500 36.1767
0585 1420964721 36.2132
0586 1420965942 36.6334
0587 1420967163 36.4885
0588 1420968383 36.1205
0589 1420969604 36.6760
0590 1420970825 36.6212
0591 1420972045 36.7504
0592 1420973266 36.1967
0593 1420974487 36.1852
0594 1420975708 36.0077
0595 1420976928 36.0774
0596 1420978149 35.9046
0597 1420979370 35.9026
0598 1420980590 35.8925
0599 1420981811 35.9175
0600 1420983032 36.5057
0601 1420984252 36.2596
0602 1420985473 36.0659
0603 1420986694 35.8520
0604 1420987915 35.8344
0605 1420989135 36.4329
0606 1420990356 36.2927
0607 1420991577 36.2995
0608 1420992797 36.1115
0609 1420994018 36.4573
0610 1420995239 36.2111
0611 1420996459 36.1557
0612 1420997680 35.9928
0613 1420998901 36.6284
0614 1421000122 36.3706
0615 1421001342 36.1773
0616 1421002563 35.8570
0617 1421003784 35.7353
0618 1421005004 35.7931
0619 1421006225 36.2565
0620 1421007446 36.2474
0621 1421008666 36.1019
0622 1421009887 35.6293
0623 1421011108 35.7785
0624 1421012329 35.9763
0625 1421013549 35.8970
0626 1421014770 36.1535
0627 1421015991 36.3531
0628 1421017211 41.7364
0629 1421018432 44.8184
0630 1421019653 37.2189
0631 1421020874 36.9965
0632 1421022094 36.3234
0633 1421023315 36.5706
0634 1421024536 36.1261
0635 1421025756 36.1665
0636 1421026977 36.1813
0637 1421028198 36.2723
0638 1421029418 36.0571
0639 1421030639 35.7433
0640 1421031860 36.5852
0641 1421033081 36.2210
0642 1421034301 36.4211
0643 1421035522 35.8249
0644 1421036743 35.5193
0645 1421037963 35.7108
0646 1421039184 36.2863
0647 1421040405 36.6090
0648 1421041625 35.5810
0649 1421042846 36.0057
0650 1421044067 35.9930
0651 1421045288 36.5856
0652 1421046508 36.2766
0653 1421047729 36.3438
0654 1421048950 36.1481
0655 1421050170 35.9640
0656 1421051391 35.7985
0657 1421052612 36.1993
0658 1421053833 36.8188
0659 1421055053 36.2204
0660 1421056274 36.3230
0661 1421057495 35.9817
0662 1421058715 35.9160
0663 1421059936 36.5775
0664 1421061157 36.2730
0665 1421062377 36.2700
0666 1421063598 36.6885
0667 1421064819 37.0508
0668 1421066040 36.4078
0669 1421067260 36.9379
0670 1421068481 36.4360
0671 1421069702 37.0628
0672 1421070922 36.3413
0673 1421072143 36.7648
0674 1421073364 36.3382
0675 1421074584 36.1721
0676 1421075805 36.4720
0677 1421077026 36.6783
0678 1421078247 36.1913
0679 1421079467 36.3908
0680 1421080688 36.3142
0681 1421081909 37.1127
0682 1421083129 37.3015
0683 1421084350 40.5834
0684 1421085571 48.9638
0685 1421086791 39.2991
0686 1421088012 36.9422
0687 1421089233 36.8272
0688 1421090454 36.7904
0689 1421091674 36.3989
0690 1421092895 36.9225
0691 1421094116 36.3964
0692 1421095336 36.8616
0693 1421096557 36.4836
0694 1421097778 37.0450
0695 1421098999 36.7916
0696 1421100219 36.6663
0697 1421101440 36.5671
0698 1421102661 36.9549
0699 1421103881 37.1705
0700 1421105102 37.1438
0701 1421106323 36.8016
0702 1421107543 37.5124
0703 1421108764 37.0837
0704 1421109985 36.8791
0705 1421111206 36.8467
0706 1421112426 37.0754
0707 1421113647 36.9912
0708 1421114868 36.6144
0709 1421116088 36.7445
0710 1421117309 37.2452
0711 1421118530 37.4150
0712 1421119750 36.9426
0713 1421120971 37.0499
0714 1421122192 36.9008
0715 1421123413 37.1194
0716 1421124633 37.2925
0717 1421125854 37.4659
0718 1421127075 37.5313
0719 1421128295 37.9976
0720 1421129516 37.5923
0721 1421130737 37.2392
0722 1421131958 37.1729
0723 1421133178 37.3591
0724 1421134399 36.8177
0725 1421135620 37.1842
0726 1421136840 37.2708
0727 1421138061 37.2502
0728 1421139282 37.7670
0729 1421140502 38.3170
0730 1421141723 37.4585
0731 1421142944 37.4909
0732 1421144165 37.1307
0733 1421145385 37.1399
0734 1421146606 37.3921
0735 1421147827 37.8772
0736 1421149047 37.8751
0737 1421150268 38.0934
0738 1421151489 38.8640
0739 1421152709 44.2165
0740 1421153930 40.6479
0741 1421155151 37.7459
0742 1421156372 38.0285
0743 1421157592 37.6459
0744 1421158813 37.9675
0745 1421160034 37.9136
0746 1421161254 37.8659
0747 1421162475 37.8661
0748 1421163696 37.8371
0749 1421164916 37.9957
0750 1421166137 37.9220
0751 1421167358 37.8948
0752 1421168579 38.2088
0753 1421169799 38.2516
0754 1421171020 37.9119
0755 1421172241 38.1363
0756 1421173461 38.2820
0757 1421174682 38.0683
0758 1421175903 38.2301
0759 1421177124 38.0828
0760 1421178344 38.0854
0761 1421179565 37.9442
0762 1421180786 38.1885
0763 1421182006 38.7984
0764 1421183227 38.5957
0765 1421184448 38.2321
0766 1421185668 37.9998
0767 1421186889 38.4164
0768 1421188110 38.4578
0769 1421189331 38.2211
0770 1421190551 37.7775
0771 1421191772 37.8375
0772 1421192993 38.5527
0773 1421194213 39.2276
0774 1421195434 38.2362
0775 1421196655 38.7909
0776 1421197875 38.6523
0777 1421199096 38.3606
0778 1421200317 38.2072
0779 1421201538 38.4634
0780 1421202758 39.4823
0781 1421203979 38.9459
0782 1421205200 39.3314
0783 1421206420 39.7340
0784 1421207641 38.9656
0785 1421208862 38.8124
0786 1421210083 39.3348
0787 1421211303 39.2076
0788 1421212524 39.0191
0789 1421213745 39.1610
0790 1421214965 39.3189
0791 1421216186 39.6832
0792 1421217407 40.2045
0793 1421218627 41.3141
0794 1421219848 49.9824
0795 1421221069 50.6082
0796 1421222290 41.3824
0797 1421223510 40.2690
0798 1421224731 40.3118
0799 1421225952 39.6349
0800 1421227172 40.2170
0801 1421228393 40.0573
0802 1421229614 39.7994
0803 1421230834 39.8040
0804 1421232055 40.2389
0805 1421233276 39.8618
0806 1421234497 39.7796
0807 1421235717 39.7182
0808 1421236938 39.9158
0809 1421238159 40.3581
0810 1421239379 39.9203
0811 1421240600 39.9911
0812 1421241821 40.1323
0813 1421243041 39.8603
0814 1421244262 40.0212
0815 1421245483 39.8236
0816 1421246704 40.0772
0817 1421247924 40.3777
0818 1421249145 40.1717
0819 1421250366 39.9421
0820 1421251586 40.0567
0821 1421252807 40.3810
0822 1421254028 40.3208
0823 1421255249 40.5428
0824 1421256469 40.3449
0825 1421257690 40.7755
0826 1421258911 40.9956
0827 1421260131 40.7865
0828 1421261352 40.4675
0829 1421262573 40.6269
0830 1421263793 40.5923
0831 1421265014 40.8420
0832 1421266235 40.8145
0833 1421267456 41.2445
0834 1421268676 40.6357
0835 1421269897 40.6881
0836 1421271118 40.9537
0837 1421272338 41.6197
0838 1421273559 41.2795
0839 1421274780 41.6094
0840 1421276000 41.1017
0841 1421277221 41.1320
0842 1421278442 41.4696
0843 1421279663 41.9604
0844 1421280883 41.8866
0845 1421282104 41.6565
0846 1421283325 42.2077
0847 1421284545 42.7782
0848 1421285766 44.5488
0849 1421286987 60.3962
0850 1421288208 80.0394
0851 1421289428 47.7844
0852 1421290649 44.3886
0853 1421291870 42.7266
0854 1421293090 41.8336
0855 1421294311 41.9632
0856 1421295532 41.7275
0857 1421296752 41.8910
0858 1421297973 41.9042
0859 1421299194 42.0811
0860 1421300415 42.2813
0861 1421301635 42.1320
0862 1421302856 42.0181
0863 1421304077 42.5953
0864 1421305297 42.4874
0865 1421306518 42.4782
0866 1421307739 42.5613
0867 1421308959 42.4687
0868 1421310180 42.5153
0869 1421311401 42.3495
0870 1421312622 42.3545
0871 1421313842 41.5807
0872 1421315063 42.1242
0873 1421316284 42.4854
0874 1421317504 42.7304
0875 1421318725 42.3156
0876 1421319946 42.3942
0877 1421321166 42.0261
0878 1421322387 43.2119
0879 1421323608 42.1453
0880 1421324829 41.9539
0881 1421326049 42.5038
0882 1421327270 42.6616
0883 1421328491 42.8283
0884 1421329711 42.9059
0885 1421330932 43.0509
0886 1421332153 43.3842
0887 1421333374 42.9224
0888 1421334594 42.6141
0889 1421335815 42.5727
0890 1421337036 42.1887
0891 1421338256 43.0506
0892 1421339477 42.3303
0893 1421340698 42.6826
0894 1421341918 43.1954
0895 1421343139 42.7044
0896 1421344360 42.5419
0897 1421345581 43.6651
0898 1421346801 43.8579
0899 1421348022 43.2899
0900 1421349243 43.4058
0901 1421350463 43.7622
0902 1421351684 44.3705
0903 1421352905 45.5953
0904 1421354125 54.8503
0905 1421355346 90.5086
0906 1421356567 57.5499
0907 1421357788 45.5779
0908 1421359008 44.0105
0909 1421360229 43.8700
0910 1421361450 43.9183
0911 1421362670 44.2684
0912 1421363891 43.8716
0913 1421365112 44.0926
0914 1421366333 44.1116
0915 1421367553 43.8843
0916 1421368774 43.5205
0917 1421369995 43.5199
0918 1421371215 43.7469
0919 1421372436 44.1716
0920 1421373657 43.7634
0921 1421374877 43.6102
0922 1421376098 43.3243
0923 1421377319 44.0525
0924 1421378540 43.9195
0925 1421379760 44.0000
0926 1421380981 44.2243
0927 1421382202 43.4285
0928 1421383422 43.5632
0929 1421384643 43.6176
0930 1421385864 44.0332
0931 1421387084 44.1308
0932 1421388305 44.0971
0933 1421389526 44.4271
0934 1421390747 44.3415
0935 1421391967 43.3770
0936 1421393188 44.4494
0937 1421394409 44.6132
0938 1421395629 44.5582
0939 1421396850 44.4257
0940 1421398071 44.9006
0941 1421399291 44.7699
0942 1421400512 45.3643
0943 1421401733 44.3667
0944 1421402954 44.6214
0945 1421404174 44.5866
0946 1421405395 44.7822
0947 1421406616 44.1421
0948 1421407836 44.3757
0949 1421409057 44.4617
0950 1421410278 44.7981
0951 1421411499 44.6661
0952 1421412719 45.4535
0953 1421413940 44.9355
0954 1421415161 44.8232
0955 1421416381 45.3113
0956 1421417602 45.1706
0957 1421418823 45.2391
0958 1421420043 44.8504
0959 1421421264 46.0552
0960 1421422485 50.2918
0961 1421423706 48.9842
0962 1421424926 46.0458
0963 1421426147 45.1201
0964 1421427368 44.6223
0965 1421428588 45.1863
0966 1421429809 45.2832
0967 1421431030 45.0615
0968 1421432250 45.0590
0969 1421433471 44.8066
0970 1421434692 45.5383
0971 1421435913 45.3862
0972 1421437133 44.9319
0973 1421438354 44.9244
0974 1421439575 44.9386
0975 1421440795 45.2047
0976 1421442016 44.8051
0977 1421443237 44.8433
0978 1421444458 46.0104
0979 1421445678 45.2668
0980 1421446899 45.3650
0981 1421448120 46.1169
0982 1421449340 45.5528
0983 1421450561 45.3819
0984 1421451782 45.7995
0985 1421453002 45.7244
0986 1421454223 45.5654
0987 1421455444 45.6964
0988 1421456665 45.4941
0989 1421457885 45.3096
0990 1421459106 44.8027
0991 1421460327 45.2285
0992 1421461547 45.3098
0993 1421462768 46.3547
0994 1421463989 45.5923
0995 1421465209 45.4791
0996 1421466430 45.8395
0997 1421467651 45.8813
0998 1421468872 45.8840
0999 1421470092 45.9589
1000 1421471313 46.4265
1001 1421472534 45.5284
1002 1421473754 45.6740
1003 1421474975 45.7883
1004 1421476196 45.5290
1005 1421477416 45.8468
1006 1421478637 46.3576
1007 1421479858 45.7034
1008 1421481079 45.4635
1009 1421482299 46.1038
1010 1421483520 46.0424
1011 1421484741 46.7570
1012 1421485961 46.4284
1013 1421487182 46.4585
1014 1421488403 47.1836
1015 1421489624 48.1224
1016 1421490844 49.3861
1017 1421492065 48.1189
1018 1421493286 47.7374
1019 1421494506 48.6197
1020 1421495727 49.6576
1021 1421496948 50.8926
1022 1421498168 52.2511
1023 1421499389 51.9832
1024 1421500610 48.4236
1025 1421501831 51.5157
1026 1421503051 51.1433
1027 1421504272 50.8077
1028 1421505493 48.4603
1029 1421506713 47.5395
1030 1421507934 47.7022
1031 1421509155 47.9267
1032 1421510375 46.9614
1033 1421511596 47.2629
1034 1421512817 46.8781
1035 1421514038 47.0446
1036 1421515258 46.2991
1037 1421516479 46.6637
1038 1421517700 46.7080
1039 1421518920 46.7183
1040 1421520141 46.4612
1041 1421521362 46.0332
1042 1421522583 46.3706
1043 1421523803 45.4380
1044 1421525024 45.7592
1045 1421526245 45.7950
1046 1421527465 45.4097
1047 1421528686 46.0329
1048 1421529907 45.9898
1049 1421531127 45.5475
1050 1421532348 46.1135
1051 1421533569 45.6448
1052 1421534790 45.6248
1053 1421536010 46.1812
1054 1421537231 46.0498
1055 1421538452 46.2466
1056 1421539672 46.0046
1057 1421540893 45.1919
1058 1421542114 45.5419
1059 1421543334 44.7782
1060 1421544555 45.5556
1061 1421545776 45.9765
1062 1421546997 45.6937
1063 1421548217 45.6641
1064 1421549438 45.0095
1065 1421550659 45.2933
1066 1421551879 45.2920
1067 1421553100 45.7219
1068 1421554321 45.5057
1069 1421555541 46.1813
1070 1421556762 45.1593
1071 1421557983 45.8476
1072 1421559204 45.3883
1073 1421560424 44.6425
1074 1421561645 45.3160
1075 1421562866 45.1020
1076 1421564086 45.2014
1077 1421565307 44.7381
1078 1421566528 44.8757
1079 1421567749 45.0910
1080 1421568969 45.0712
1081 1421570190 45.1929
1082 1421571411 44.9610
1083 1421572631 45.0143
1084 1421573852 44.6987
1085 1421575073 44.8110
1086 1421576293 45.2239
1087 1421577514 45.6336
1088 1421578735 44.8636
1089 1421579956 45.2787
1090 1421581176 44.6116
1091 1421582397 44.4422
1092 1421583618 44.1675
1093 1421584838 44.3819
1094 1421586059 44.6275
1095 1421587280 44.7009
1096 1421588500 44.5922
1097 1421589721 45.1927
1098 1421590942 44.5936
1099 1421592163 44.6573
1100 1421593383 44.6695
1101 1421594604 44.8378
1102 1421595825 45.1495
1103 1421597045 44.4414
1104 1421598266 44.4322
1105 1421599487 45.2193
1106 1421600708 45.2355
1107 1421601928 45.1790
1108 1421603149 44.5690
1109 1421604370 44.7075
1110 1421605590 44.0410
1111 1421606811 44.0270
1112 1421608032 45.1194
1113 1421609252 44.9498
1114 1421610473 44.2298
1115 1421611694 44.3134
1116 1421612915 44.1298
1117 1421614135 45.1251
1118 1421615356 44.0881
1119 1421616577 44.0841
1120 1421617797 43.9090
1121 1421619018 43.6697
1122 1421620239 44.1225
1123 1421621459 44.0146
1124 1421622680 43.9293
1125 1421623901 44.0942
1126 1421625122 43.8918
1127 1421626342 44.4576
1128 1421627563 43.6374
1129 1421628784 43.6484
1130 1421630004 43.4857
1131 1421631225 43.7323
1132 1421632446 43.4967
1133 1421633666 43.1170
1134 1421634887 43.4867
1135 1421636108 43.6242
1136 1421637329 43.9033
1137 1421638549 43.9691
1138 1421639770 44.3541
1139 1421640991 43.9650
1140 1421642211 43.8633
1141 1421643432 43.2587
1142 1421644653 43.4578
1143 1421645874 43.8867
1144 1421647094 43.6490
1145 1421648315 44.0895
1146 1421649536 43.2270
1147 1421650756 43.5628
1148 1421651977 42.9644
1149 1421653198 43.5479
1150 1421654418 43.5998
1151 1421655639 43.1519
1152 1421656860 43.7932
1153 1421658081 42.8516
1154 1421659301 42.8233
1155 1421660522 43.4079
1156 1421661743 43.2286
1157 1421662963 42.9735
1158 1421664184 43.1721
1159 1421665405 42.7391
1160 1421666625 43.2432
1161 1421667846 42.9942
1162 1421669067 42.7396
1163 1421670288 42.7852
1164 1421671508 42.7582
1165 1421672729 42.5576
1166 1421673950 43.1187
1167 1421675170 43.1913
1168 1421676391 42.6272
1169 1421677612 42.2654
1170 1421678833 43.4265
1171 1421680053 42.7033
1172 1421681274 42.6895
1173 1421682495 42.4059
1174 1421683715 42.4254
1175 1421684936 42.3308
1176 1421686157 42.0313
1177 1421687377 41.9492
1178 1421688598 42.8725
1179 1421689819 41.7653
1180 1421691040 42.7716
1181 1421692260 42.3944
1182 1421693481 42.5825
1183 1421694702 42.1127
1184 1421695922 42.7195
1185 1421697143 42.5805
1186 1421698364 42.3500
1187 1421699584 42.0317
1188 1421700805 41.7452
1189 1421702026 42.2341
1190 1421703247 42.1898
1191 1421704467 41.9403
1192 1421705688 42.2128
1193 1421706909 41.8264
1194 1421708129 41.5878
1195 1421709350 41.5986
1196 1421710571 41.2536
1197 1421711791 42.0393
1198 1421713012 41.9257
1199 1421714233 42.5741
1200 1421715454 41.8395
1201 1421716674 41.6847
1202 1421717895 41.7626
1203 1421719116 41.4027
1204 1421720336 41.9025
1205 1421721557 41.3511
1206 1421722778 41.0378
1207 1421723999 41.8113
1208 1421725219 41.6388
1209 1421726440 42.0142
1210 1421727661 41.9556
1211 1421728881 41.2723
1212 1421730102 41.3876
1213 1421731323 41.5288
1214 1421732543 42.1288
1215 1421733764 41.1326
1216 1421734985 41.0319
1217 1421736206 40.9435
1218 1421737426 41.2291
1219 1421738647 40.9521
1220 1421739868 40.5270
1221 1421741088 41.0278
1222 1421742309 41.4915
1223 1421743530 40.6989
1224 1421744750 40.8312
1225 1421745971 40.4878
1226 1421747192 40.8860
1227 1421748413 40.5799
1228 1421749633 40.8400
1229 1421750854 40.5321
1230 1421752075 40.6704
1231 1421753295 40.0402
1232 1421754516 40.4169
1233 1421755737 40.6106
1234 1421756958 41.0095
1235 1421758178 41.2692
1236 1421759399 41.6881
1237 1421760620 40.7500
1238 1421761840 41.0823
1239 1421763061 40.6763
1240 1421764282 40.4893
1241 1421765502 40.5588
1242 1421766723 40.2893
1243 1421767944 39.9774
1244 1421769165 39.7609
1245 1421770385 40.2626
1246 1421771606 39.7498
1247 1421772827 39.7910
1248 1421774047 40.0573
1249 1421775268 40.1741
1250 1421776489 39.9146
1251 1421777709 40.1382
1252 1421778930 40.0466
1253 1421780151 39.9870
1254 1421781372 40.2708
1255 1421782592 40.2048
1256 1421783813 40.0612
1257 1421785034 39.3608
1258 1421786254 39.7647
1259 1421787475 39.1961
1260 1421788696 39.2085
1261 1421789916 39.5576
1262 1421791137 39.7624
1263 1421792358 39.9407
1264 1421793579 39.8811
1265 1421794799 39.6128
1266 1421796020 39.7168
1267 1421797241 39.4675
1268 1421798461 39.5692
1269 1421799682 39.6242
1270 1421800903 39.5954
1271 1421802124 39.5439
1272 1421803344 39.6578
1273 1421804565 44.2659
1274 1421805786 42.0324
1275 1421807006 40.0426
1276 1421808227 39.5153
1277 1421809448 39.5849
1278 1421810668 39.7112
1279 1421811889 39.7775
1280 1421813110 39.1339
1281 1421814331 39.5666
1282 1421815551 39.8553
1283 1421816772 38.5215
1284 1421817993 39.6470
1285 1421819213 39.5317
1286 1421820434 39.2472
1287 1421821655 39.2182
1288 1421822875 40.9868
1289 1421824096 39.7322
1290 1421825317 39.4456
1291 1421826538 38.7122
1292 1421827758 38.7675
1293 1421828979 39.1869
1294 1421830200 38.8747
1295 1421831420 38.9353
1296 1421832641 38.9575
1297 1421833862 38.9163
1298 1421835083 38.6152
1299 1421836303 38.9036
1300 1421837524 39.2153
1301 1421838745 38.4544
1302 1421839965 38.7841
1303 1421841186 38.5805
1304 1421842407 38.3901
1305 1421843627 39.0231
1306 1421844848 38.6727
1307 1421846069 38.5890
1308 1421847290 38.4442
1309 1421848510 39.9475
1310 1421849731 39.0703
1311 1421850952 38.8007
1312 1421852172 38.7906
1313 1421853393 38.3983
1314 1421854614 37.9443
1315 1421855834 38.5781
1316 1421857055 38.5240
1317 1421858276 38.5516
1318 1421859497 37.9344
1319 1421860717 38.5838
1320 1421861938 39.2312
1321 1421863159 39.9165
1322 1421864379 40.6448
1323 1421865600 40.1235
1324 1421866821 39.0423
1325 1421868041 38.8382
1326 1421869262 38.4031
1327 1421870483 38.1319
1328 1421871704 38.5242
1329 1421872924 38.2832
1330 1421874145 38.0956
1331 1421875366 38.4436
1332 1421876586 38.1087
1333 1421877807 38.4874
1334 1421879028 38.1570
1335 1421880249 38.0813
1336 1421881469 38.0647
1337 1421882690 37.9138
1338 1421883911 38.2960
1339 1421885131 38.4102
1340 1421886352 37.6776
1341 1421887573 37.3497
1342 1421888793 38.0001
1343 1421890014 38.5566
1344 1421891235 38.3413
1345 1421892456 37.6285
1346 1421893676 37.6586
1347 1421894897 38.3448
1348 1421896118 38.2282
1349 1421897338 37.4236
1350 1421898559 37.6277
1351 1421899780 37.3860
1352 1421901000 38.3717
1353 1421902221 37.5979
1354 1421903442 38.3224
1355 1421904663 37.7440
1356 1421905883 37.8540
1357 1421907104 37.7983
1358 1421908325 38.3509
1359 1421909545 37.6306
1360 1421910766 38.1572
1361 1421911987 37.6930
1362 1421913208 37.5337
1363 1421914428 37.5245
1364 1421915649 38.4758
1365 1421916870 38.4498
1366 1421918090 37.4119
1367 1421919311 37.8540
1368 1421920532 38.1958
1369 1421921752 37.5992
1370 1421922973 37.6354
1371 1421924194 37.1960
1372 1421925415 37.3496
1373 1421926635 37.8268
1374 1421927856 37.6881
1375 1421929077 37.8559
1376 1421930297 38.0110
1377 1421931518 37.5423
1378 1421932739 37.6565
1379 1421933959 38.1605
1380 1421935180 37.5151
1381 1421936401 37.4330
1382 1421937622 37.7732
1383 1421938842 37.8513
1384 1421940063 37.6100
1385 1421941284 37.7759
1386 1421942504 37.4644
1387 1421943725 37.9682
1388 1421944946 37.5467
1389 1421946166 37.4062
1390 1421947387 37.8877
1391 1421948608 37.5600
1392 1421949829 37.4206
1393 1421951049 37.6244
1394 1421952270 38.2289
1395 1421953491 38.1811
1396 1421954711 38.3008
1397 1421955932 37.5574
1398 1421957153 37.7358
1399 1421958374 37.8190
1400 1421959594 37.9509
1401 1421960815 37.5437
1402 1421962036 38.2543
1403 1421963256 37.6403
1404 1421964477 37.9074
1405 1421965698 37.4941
1406 1421966918 37.6144
1407 1421968139 37.2517
1408 1421969360 37.3834
1409 1421970581 37.8474
1410 1421971801 37.3767
1411 1421973022 37.6098
1412 1421974243 37.4889
1413 1421975463 38.0080
1414 1421976684 37.8952
1415 1421977905 37.7933
1416 1421979125 38.0642
1417 1421980346 37.8848
1418 1421981567 37.9387
1419 1421982788 38.0558
1420 1421984008 40.6275
1421 1421985229 38.5623
1422 1421986450 38.0587
1423 1421987670 37.6935
1424 1421988891 37.8565
1425 1421990112 37.7147
1426 1421991333 37.8977
1427 1421992553 37.6735
1428 1421993774 37.6071
1429 1421994995 37.5515
1430 1421996215 37.5873
1431 1421997436 37.8984
1432 1421998657 38.1106
1433 1421999877 37.8274
1434 1422001098 97.7424
1435 1422002319 280.9314
1436 1422003540 67.2985
1437 1422004760 38.3066
1438 1422005981 38.2687
1439 1422007202 38.1001
1440 1422008422 37.9359
1441 1422009643 37.2124
1442 1422010864 37.5653
1443 1422012084 37.6935
1444 1422013305 37.5606
1445 1422014526 37.8028
1446 1422015747 37.4883
1447 1422016967 37.1308
1448 1422018188 37.5347
1449 1422019409 38.3954
1450 1422020629 37.3746
1451 1422021850 38.1303
1452 1422023071 37.8511
1453 1422024291 38.0597
1454 1422025512 37.7918
1455 1422026733 37.6324
1456 1422027954 38.2349
1457 1422029174 37.8589
1458 1422030395 38.1672
1459 1422031616 37.4625
1460 1422032836 37.7945
1461 1422034057 37.7784
1462 1422035278 38.2288
1463 1422036499 37.6172
1464 1422037719 37.4885
1465 1422038940 37.3994
1466 1422040161 37.6084
1467 1422041381 37.9557
1468 1422042602 38.1735
1469 1422043823 37.7294
1470 1422045043 37.7239
1471 1422046264 37.8527
1472 1422047485 38.2095
1473 1422048706 37.8939
1474 1422049926 38.5797
1475 1422051147 39.7778
1476 1422052368 38.8017
1477 1422053588 38.5011
1478 1422054809 37.6149
1479 1422056030 37.9129
1480 1422057250 37.9923
1481 1422058471 37.9112
1482 1422059692 38.3253
1483 1422060913 37.5810
1484 1422062133 37.9138
1485 1422063354 37.8319
1486 1422064575 38.2704
1487 1422065795 38.0434
1488 1422067016 37.7221
1489 1422068237 37.7570
1490 1422069458 37.9302
1491 1422070678 38.3165
1492 1422071899 37.9647
1493 1422073120 37.4204
1494 1422074340 37.9246
1495 1422075561 38.0318
1496 1422076782 38.0859
1497 1422078002 37.3040
1498 1422079223 38.1221
1499 1422080444 37.6842
1500 1422081665 38.2176
1501 1422082885 38.0364
1502 1422084106 37.8316
1503 1422085327 38.0891
1504 1422086547 38.2156
1505 1422087768 38.2563
1506 1422088989 37.2898
1507 1422090209 37.4542
1508 1422091430 38.2155
1509 1422092651 37.7345
1510 1422093872 38.2446
1511 1422095092 37.9286
1512 1422096313 38.0224
1513 1422097534 38.2163
1514 1422098754 38.1066
1515 1422099975 38.0131
1516 1422101196 37.9289
1517 1422102416 38.3154
1518 1422103637 37.9536
1519 1422104858 37.9868
1520 1422106079 37.9935
1521 1422107299 38.3273
1522 1422108520 38.3660
1523 1422109741 38.3120
1524 1422110961 38.9518
1525 1422112182 38.4819
1526 1422113403 38.3072
1527 1422114624 38.5770
1528 1422115844 38.2544
1529 1422117065 39.4639
1530 1422118286 41.7852
1531 1422119506 43.2669
1532 1422120727 39.3637
1533 1422121948 38.6547
1534 1422123168 38.0388
1535 1422124389 37.8148
1536 1422125610 38.3235
1537 1422126831 38.4398
1538 1422128051 37.5659
1539 1422129272 37.6919
1540 1422130493 38.1599
1541 1422131713 38.1139
1542 1422132934 38.0943
1543 1422134155 38.0211
1544 1422135375 38.0191
1545 1422136596 38.4019
1546 1422137817 38.5719
1547 1422139038 38.1374
1548 1422140258 38.6012
1549 1422141479 38.9217
1550 1422142700 38.6206
1551 1422143920 38.5080
1552 1422145141 38.5647
1553 1422146362 38.2956
1554 1422147583 38.1038
1555 1422148803 38.2020
1556 1422150024 38.5121
1557 1422151245 38.7766
1558 1422152465 38.3781
1559 1422153686 38.8494
1560 1422154907 38.4776
1561 1422156127 38.5570
1562 1422157348 38.4959
1563 1422158569 38.9740
1564 1422159790 38.6668
1565 1422161010 38.8137
1566 1422162231 38.6386
1567 1422163452 38.0764
1568 1422164672 38.6997
1569 1422165893 38.6122
1570 1422167114 38.3767
1571 1422168334 38.3575
1572 1422169555 38.4447
1573 1422170776 38.7189
1574 1422171997 38.9837
1575 1422173217 38.8698
1576 1422174438 38.5079
1577 1422175659 38.1785
1578 1422176879 38.2321
1579 1422178100 38.8592
1580 1422179321 39.4365
1581 1422180541 38.4060
1582 1422181762 38.7427
1583 1422182983 38.6644
1584 1422184204 39.0354
1585 1422185424 39.5867
1586 1422186645 40.5586
1587 1422187866 39.2152
1588 1422189086 38.3624
1589 1422190307 38.7676
1590 1422191528 38.7278
1591 1422192749 38.4985
1592 1422193969 38.7367
1593 1422195190 38.8529
1594 1422196411 39.2734
1595 1422197631 38.5311
1596 1422198852 42.4273
1597 1422200073 42.6763
1598 1422201293 39.3747
1599 1422202514 39.0974
1600 1422203735 39.9074
1601 1422204956 38.9840
1602 1422206176 38.5266
1603 1422207397 38.0815
1604 1422208618 38.6985
1605 1422209838 38.7011
1606 1422211059 38.4463
1607 1422212280 38.3062
1608 1422213500 38.2342
1609 1422214721 38.2389
1610 1422215942 38.7503
1611 1422217163 38.8848
1612 1422218383 38.7281
1613 1422219604 38.5240
1614 1422220825 38.7122
1615 1422222045 38.7659
1616 1422223266 38.0966
1617 1422224487 37.7823
1618 1422225708 38.6037
1619 1422226928 38.3481
1620 1422228149 38.0366
1621 1422229370 37.7884
1622 1422230590 38.5031
1623 1422231811 38.1235
1624 1422233032 37.6502
1625 1422234252 38.1034
1626 1422235473 37.9671
1627 1422236694 37.8829
1628 1422237915 37.8528
1629 1422239135 37.9184
1630 1422240356 37.8340
1631 1422241577 37.6169
1632 1422242797 37.9875
1633 1422244018 38.4674
1634 1422245239 38.4957
1635 1422246459 38.1827
1636 1422247680 37.6964
1637 1422248901 37.9172
1638 1422250122 38.0309
1639 1422251342 38.0857
1640 1422252563 37.9429
1641 1422253784 38.2431
1642 1422255004 38.3574
1643 1422256225 37.8828
1644 1422257446 38.1419
1645 1422258666 37.7601
1646 1422259887 38.3192
1647 1422261108 38.5611
1648 1422262329 38.3436
1649 1422263549 38.4364
1650 1422264770 38.1293
1651 1422265991 37.8029
1652 1422267211 38.2203
1653 1422268432 37.4722
1654 1422269653 37.9209
1655 1422270874 37.7037
1656 1422272094 37.4497
1657 1422273315 38.1020
1658 1422274536 37.5525
1659 1422275756 37.8219
1660 1422276977 37.2529
1661 1422278198 37.1090
1662 1422279418 36.9430
1663 1422280639 37.6718
1664 1422281860 38.2467
1665 1422283081 37.2590
1666 1422284301 37.1608
1667 1422285522 37.4244
1668 1422286743 37.2540
1669 1422287963 36.7799
1670 1422289184 36.7780
1671 1422290405 37.2385
1672 1422291625 36.9479
1673 1422292846 36.8725
1674 1422294067 37.0698
1675 1422295288 36.1437
1676 1422296508 36.8731
1677 1422297729 36.7786
1678 1422298950 36.9367
1679 1422300170 36.8526
1680 1422301391 36.7964
1681 1422302612 36.3131
1682 1422303833 36.4612
1683 1422305053 36.2882
1684 1422306274 36.9283
1685 1422307495 37.1050
1686 1422308715 36.5043
1687 1422309936 36.3018
1688 1422311157 36.6364
1689 1422312377 36.3834
1690 1422313598 35.8803
1691 1422314819 35.9216
1692 1422316040 35.9552
1693 1422317260 36.0293
1694 1422318481 36.2426
1695 1422319702 35.8555
1696 1422320922 36.5405
1697 1422322143 35.6750
1698 1422323364 36.2617
1699 1422324584 35.3516
1700 1422325805 35.5880
1701 1422327026 35.5180
1702 1422328247 35.4997
1703 1422329467 35.1586
1704 1422330688 35.9383
1705 1422331909 35.3718
1706 1422333129 35.3743
1707 1422334350 35.0854
1708 1422335571 35.4672
1709 1422336791 34.9490
1710 1422338012 35.0905
1711 1422339233 35.2121
1712 1422340454 35.5086
1713 1422341674 35.2034
1714 1422342895 34.9712
1715 1422344116 34.9013
1716 1422345336 34.7213
1717 1422346557 34.4060
1718 1422347778 34.6544
1719 1422348999 34.5944
1720 1422350219 34.2789
1721 1422351440 33.8881
1722 1422352661 34.2936
1723 1422353881 34.4335
1724 1422355102 34.1218
1725 1422356323 34.0902
1726 1422357543 34.2574
1727 1422358764 34.1822
1728 1422359985 34.2175
1729 1422361206 34.0430
1730 1422362426 33.6647
1731 1422363647 33.8467
1732 1422364868 34.1303
1733 1422366088 34.0760
1734 1422367309 33.6865
1735 1422368530 33.2885
1736 1422369750 33.3118
1737 1422370971 33.6322
1738 1422372192 33.6301
1739 1422373413 33.3973
1740 1422374633 33.0380
1741 1422375854 33.2050
1742 1422377075 32.6429
1743 1422378295 33.0599
1744 1422379516 32.5466
1745 1422380737 32.6919
1746 1422381958 32.6272
1747 1422383178 32.4589
1748 1422384399 33.2245
1749 1422385620 32.3902
1750 1422386840 32.0515
1751 1422388061 32.4350
1752 1422389282 32.9456
1753 1422390502 32.6102
1754 1422391723 32.4782
1755 1422392944 32.0458
1756 1422394165 32.2387
1757 1422395385 31.9197
1758 1422396606 32.2013
1759 1422397827 32.0982
1760 1422399047 31.6070
1761 1422400268 32.0674
1762 1422401489 31.6024
1763 1422402709 31.2663
1764 1422403930 31.9037
1765 1422405151 31.0169
1766 1422406372 30.8715
1767 1422407592 31.2302
1768 1422408813 30.9075
1769 1422410034 31.1133
1770 1422411254 30.5149
1771 1422412475 30.3812
1772 1422413696 30.3621
1773 1422414916 30.5571
1774 1422416137 30.0774
1775 1422417358 30.1512
1776 1422418579 30.3494
1777 1422419799 30.3009
1778 1422421020 30.4124
1779 1422422241 29.8658
1780 1422423461 29.5949
1781 1422424682 29.6368
1782 1422425903 29.5910
1783 1422427124 29.5996
1784 1422428344 29.1419
1785 1422429565 29.4935
1786 1422430786 29.4543
1787 1422432006 29.2639
1788 1422433227 28.9813
1789 1422434448 28.9606
1790 1422435668 28.9447
1791 1422436889 29.2980
1792 1422438110 28.8807
1793 1422439331 28.5988
1794 1422440551 28.0586
1795 1422441772 28.5437
1796 1422442993 28.2935
1797 1422444213 28.2656
1798 1422445434 28.1252
1799 1422446655 28.0823
1800 1422447875 27.8505
1801 1422449096 27.6585
1802 1422450317 27.6888
1803 1422451538 27.2986
1804 1422452758 27.6355
1805 1422453979 27.6949
1806 1422455200 27.3801
1807 1422456420 27.2634
1808 1422457641 27.1827
1809 1422458862 27.1660
1810 1422460083 26.6916
1811 1422461303 26.7207
1812 1422462524 26.4299
1813 1422463745 26.5000
1814 1422464965 26.3572
1815 1422466186 26.5699
1816 1422467407 26.6041
1817 1422468627 26.0743
1818 1422469848 25.8456
1819 1422471069 25.9792
1820 1422472290 25.8870
1821 1422473510 26.0989
1822 1422474731 25.5561
1823 1422475952 25.2479
1824 1422477172 25.3206
1825 1422478393 25.5867
1826 1422479614 25.5330
1827 1422480834 25.1785
1828 1422482055 24.7509
1829 1422483276 24.6379
1830 1422484497 24.6334
1831 1422485717 24.3911
1832 1422486938 24.6066
1833 1422488159 24.7898
1834 1422489379 24.2935
1835 1422490600 24.4244
1836 1422491821 24.3538
1837 1422493041 23.7660
1838 1422494262 23.6753
1839 1422495483 23.9095
1840 1422496704 23.9044
1841 1422497924 23.6428
1842 1422499145 23.6491
1843 1422500366 23.3160
1844 1422501586 23.2611
1845 1422502807 22.9684
1846 1422504028 22.7913
1847 1422505249 23.0322
1848 1422506469 22.7652
1849 1422507690 22.7174
1850 1422508911 22.3903
1851 1422510131 22.3559
1852 1422511352 22.4223
1853 1422512573 22.2196
1854 1422513793 21.8883
1855 1422515014 22.0684
1856 1422516235 21.8733
1857 1422517456 21.4573
1858 1422518676 21.6232
1859 1422519897 21.5610
1860 1422521118 21.3014
1861 1422522338 21.1933
1862 1422523559 21.0441
1863 1422524780 21.2456
1864 1422526000 20.9669
1865 1422527221 20.8575
1866 1422528442 20.7136
1867 1422529663 20.6074
1868 1422530883 20.5514
1869 1422532104 20.1879
1870 1422533325 20.2509
1871 1422534545 20.3172
1872 1422535766 19.9576
1873 1422536987 19.9024
1874 1422538208 20.0916
1875 1422539428 19.7912
1876 1422540649 19.7338
1877 1422541870 19.7189
1878 1422543090 19.7330
1879 1422544311 19.1411
1880 1422545532 19.2101
1881 1422546752 19.0022
1882 1422547973 19.1835
1883 1422549194 19.3109
1884 1422550415 18.8424
1885 1422551635 18.5840
1886 1422552856 18.7416
1887 1422554077 18.7730
1888 1422555297 18.9739
1889 1422556518 18.4475
1890 1422557739 17.9519
1891 1422558959 18.1046
1892 1422560180 17.8348
1893 1422561401 17.5959
1894 1422562622 17.6291
1895 1422563842 17.5823
1896 1422565063 17.2782
1897 1422566284 17.3613
1898 1422567504 17.1272
1899 1422568725 16.9523
1900 1422569946 16.9062
1901 1422571166 16.7771
1902 1422572387 16.8582
1903 1422573608 16.6988
1904 1422574829 16.6729
1905 1422576049 16.5921
1906 1422577270 16.3243
1907 1422578491 16.2255
1908 1422579711 16.2076
1909 1422580932 16.0636
1910 1422582153 15.9212
1911 1422583374 15.8902
1912 1422584594 15.7515
1913 1422585815 15.8812
1914 1422587036 15.5918
1915 1422588256 15.5571
1916 1422589477 15.2213
1917 1422590698 15.3003
1918 1422591918 15.4738
1919 1422593139 15.2938
1920 1422594360 15.1084
1921 1422595581 15.0501
1922 1422596801 15.0103
1923 1422598022 14.6100
1924 1422599243 14.6076
1925 1422600463 14.6928
1926 1422601684 14.4611
1927 1422602905 14.3826
1928 1422604125 14.4684
1929 1422605346 14.2577
1930 1422606567 14.0151
1931 1422607788 14.0851
1932 1422609008 13.9539
1933 1422610229 13.6067
1934 1422611450 13.6161
1935 1422612670 13.5856
1936 1422613891 13.6516
1937 1422615112 13.5564
1938 1422616333 13.2890
1939 1422617553 13.4301
1940 1422618774 13.1026
1941 1422619995 13.0112
1942 1422621215 13.0807
1943 1422622436 12.9505
1944 1422623657 12.7910
1945 1422624877 12.7105
1946 1422626098 12.7409
1947 1422627319 12.4667
1948 1422628540 12.3935
1949 1422629760 12.5358
1950 1422630981 12.3569
1951 1422632202 12.0803
1952 1422633422 12.2248
1953 1422634643 12.2280
1954 1422635864 11.9494
1955 1422637084 11.9351
1956 1422638305 11.8334
1957 1422639526 11.7484
1958 1422640747 11.8550
1959 1422641967 11.6647
1960 1422643188 11.4011
1961 1422644409 11.3406
1962 1422645629 11.2806
1963 1422646850 11.2379
1964 1422648071 11.2240
1965 1422649291 11.1199
1966 1422650512 11.0238
1967 1422651733 11.0180
1968 1422652954 10.9643
1969 1422654174 10.8639
1970 1422655395 10.8639
1971 1422656616 11.0316
1972 1422657836 10.7631
1973 1422659057 10.4770
1974 1422660278 10.4443
1975 1422661499 10.4797
1976 1422662719 10.3832
1977 1422663940 10.4062
1978 1422665161 10.4004
1979 1422666381 10.2843
1980 1422667602 10.1294
1981 1422668823 10.2320
1982 1422670043 10.0042
1983 1422671264 9.9991
1984 1422672485 9.9441
1985 1422673706 9.8030
1986 1422674926 9.8684
1987 1422676147 9.8167
1988 1422677368 9.7206
1989 1422678588 9.6921
1990 1422679809 9.5835
1991 1422681030 9.4662
1992 1422682250 9.6366
1993 1422683471 9.4170
1994 1422684692 9.3269
1995 1422685913 9.3796
1996 1422687133 9.4126
1997 1422688354 9.3467
1998 1422689575 9.1295
1999 1422690795 9.2525
2000 1422692016 9.1131
2001 1422693237 9.1373
2002 1422694458 8.9759
2003 1422695678 9.0807
2004 1422696899 9.0117
2005 1422698120 9.0314
2006 1422699340 9.1170
2007 1422700561 9.2239
2008 1422701782 9.0005
2009 1422703002 8.8581
2010 1422704223 8.7368
2011 1422705444 8.6809
2012 1422706665 8.6520
2013 1422707885 8.5729
2014 1422709106 8.5535
2015 1422710327 8.5734
2016 1422711547 8.6448
2017 1422712768 8.4549
2018 1422713989 8.4324
2019 1422715209 8.3576
2020 1422716430 8.4037
2021 1422717651 8.3204
2022 1422718872 8.2624
2023 1422720092 8.3192
2024 1422721313 8.2235
2025 1422722534 8.3781
2026 1422723754 8.3240
2027 1422724975 8.2242
2028 1422726196 8.2281
2029 1422727416 8.2730
2030 1422728637 8.2041
2031 1422729858 8.1430
2032 1422731079 8.1525
2033 1422732299 8.1201
2034 1422733520 8.0179
2035 1422734741 8.0704
2036 1422735961 7.9970
2037 1422737182 8.0701
2038 1422738403 8.1629
2039 1422739624 7.9612
2040 1422740844 8.0329
2041 1422742065 8.0631
2042 1422743286 8.1624
2043 1422744506 8.0019
2044 1422745727 7.9577
2045 1422746948 7.9162
2046 1422748168 8.0379
2047 1422749389 8.4377
