# File: 20-06-07T195302.ast
# NOTEA     = None Attached.  RTLSDR Dongle Test
# NOTEB     = Spectral Integration
# OBSERVER  = Science Aficionado
# DEVICE    = rtl=0,bias=1
# DATADIR   = ../data/
# SITE      = None Attached.  RTLSDR Dongle Test
# CITY      = Seattle
# REGION    = Washington
# COUNTRY   = US
# TELTYPE   = UW CSE 490W Dish
# FRAME     = TOPO
# GAIN1     = 49.0
# GAIN2     = 11.0
# GAIN3     = 11.0
# GAIN4     = 0.0
# Count     = 2500
# CenterFreq= 1421500000.0
# Bandwidth = 2500000.0
# Duration  = 41.948479
# DeltaX    = 5859.375
# TSYS      = 200.0
# TRX       = 100.0
# TRMS      = 2.0
# TINT      = 1.0
# KPERC     = 100.0
# GAINFACT  = 1.0
# BUNIT     = Counts
# NCHAN     = 2048
# NSPEC     = 1
# NTIME     = 0
# NSAMPLES  = 0
# EPEAK     = 4.10875183718
# ERMS      = 0.995973393526
# EMJD      = 58568.808999981004 
# REFCHAN   = 1024.0
# REFSAMPL  = 256.0
# NAVE      = 50
# NMEDIAN   = 1024
# Fft_rate  = 5000
# UTC       = 2020-06-07 19:53:02.781726
# SECONDS   =       0.0000000000 
# LST       = 09:08:58.020
# AZ        = 180.0
# EL        = 90.0
# TELLON    = -57:41:09.900
# TELLAT    = +47:39:13.800
# RA        = 09:06:13.770
# DEC       = +47:48:55.400
# GALLON    = 171:42:13.20
# GALLAT    = +42:01:31.30
# ALT_SUN   = +36:09:11.8
# AZ_SUN    = +264:59:27.2
# ETAA      = 0.8
# ETAB      = 0.99
# POLANGLE  = 0.0
# TELSIZEAM = 1.0
# TELSIZEBM = 1.0
# AST_VERS  = 05.01
0000 1420250610 8.0804
0001 1420251831 7.9285
0002 1420253051 7.9288
0003 1420254272 7.9513
0004 1420255493 7.9155
0005 1420256713 7.8910
0006 1420257934 7.9258
0007 1420259155 7.9363
0008 1420260375 7.9215
0009 1420261596 7.9545
0010 1420262817 7.8618
0011 1420264038 7.9662
0012 1420265258 8.0668
0013 1420266479 8.1102
0014 1420267700 8.0594
0015 1420268920 8.1253
0016 1420270141 7.9296
0017 1420271362 8.0619
0018 1420272583 8.1261
0019 1420273803 8.0894
0020 1420275024 8.1925
0021 1420276245 8.1427
0022 1420277465 8.1333
0023 1420278686 8.1763
0024 1420279907 8.2508
0025 1420281127 8.2198
0026 1420282348 8.1914
0027 1420283569 8.2804
0028 1420284790 8.2360
0029 1420286010 8.4256
0030 1420287231 8.4303
0031 1420288452 8.4094
0032 1420289672 8.4915
0033 1420290893 8.5105
0034 1420292114 8.5334
0035 1420293334 8.4494
0036 1420294555 8.5772
0037 1420295776 8.6281
0038 1420296997 8.6550
0039 1420298217 8.7309
0040 1420299438 8.8844
0041 1420300659 9.1063
0042 1420301879 8.9064
0043 1420303100 8.7382
0044 1420304321 8.9723
0045 1420305541 8.8316
0046 1420306762 9.0342
0047 1420307983 8.9705
0048 1420309204 9.1753
0049 1420310424 9.2842
0050 1420311645 9.0631
0051 1420312866 9.2421
0052 1420314086 9.3165
0053 1420315307 9.4090
0054 1420316528 9.4185
0055 1420317749 9.5265
0056 1420318969 9.5179
0057 1420320190 9.6806
0058 1420321411 9.7336
0059 1420322631 9.7453
0060 1420323852 9.7030
0061 1420325073 9.7157
0062 1420326293 9.8273
0063 1420327514 9.8941
0064 1420328735 9.9793
0065 1420329956 9.8134
0066 1420331176 10.0767
0067 1420332397 10.1386
0068 1420333618 10.1963
0069 1420334838 10.1023
0070 1420336059 10.3100
0071 1420337280 10.3196
0072 1420338500 10.3578
0073 1420339721 10.4973
0074 1420340942 10.4244
0075 1420342163 10.5210
0076 1420343383 10.6490
0077 1420344604 10.7356
0078 1420345825 10.7218
0079 1420347045 10.6055
0080 1420348266 10.9132
0081 1420349487 10.8807
0082 1420350708 10.9815
0083 1420351928 11.2239
0084 1420353149 11.1114
0085 1420354370 11.1636
0086 1420355590 11.2006
0087 1420356811 11.3913
0088 1420358032 11.2364
0089 1420359252 11.3590
0090 1420360473 11.3822
0091 1420361694 11.6941
0092 1420362915 11.7883
0093 1420364135 11.6788
0094 1420365356 11.8221
0095 1420366577 11.8220
0096 1420367797 11.8128
0097 1420369018 11.9030
0098 1420370239 11.9717
0099 1420371459 11.9961
0100 1420372680 12.1013
0101 1420373901 12.1296
0102 1420375122 12.1788
0103 1420376342 12.2587
0104 1420377563 12.5117
0105 1420378784 12.5359
0106 1420380004 12.6827
0107 1420381225 12.6263
0108 1420382446 12.6808
0109 1420383666 12.9332
0110 1420384887 12.7194
0111 1420386108 12.9791
0112 1420387329 13.2127
0113 1420388549 13.0083
0114 1420389770 13.2316
0115 1420390991 13.3301
0116 1420392211 13.3115
0117 1420393432 13.4255
0118 1420394653 13.6363
0119 1420395874 13.8161
0120 1420397094 13.8301
0121 1420398315 13.8788
0122 1420399536 13.8298
0123 1420400756 13.8460
0124 1420401977 13.9721
0125 1420403198 14.3350
0126 1420404418 14.2505
0127 1420405639 14.3916
0128 1420406860 14.2589
0129 1420408081 14.4869
0130 1420409301 14.7438
0131 1420410522 14.5100
0132 1420411743 14.7614
0133 1420412963 15.0294
0134 1420414184 15.0019
0135 1420415405 15.1687
0136 1420416625 15.2502
0137 1420417846 14.9004
0138 1420419067 15.4193
0139 1420420288 15.3026
0140 1420421508 15.3605
0141 1420422729 15.6721
0142 1420423950 15.6038
0143 1420425170 15.8897
0144 1420426391 15.9693
0145 1420427612 15.9047
0146 1420428833 15.9654
0147 1420430053 16.0787
0148 1420431274 16.1738
0149 1420432495 16.3985
0150 1420433715 16.3222
0151 1420434936 16.4000
0152 1420436157 16.4293
0153 1420437377 16.5677
0154 1420438598 16.7289
0155 1420439819 16.7496
0156 1420441040 17.0993
0157 1420442260 16.9249
0158 1420443481 17.0976
0159 1420444702 17.4886
0160 1420445922 17.2294
0161 1420447143 17.6020
0162 1420448364 17.9036
0163 1420449584 17.8532
0164 1420450805 17.8213
0165 1420452026 17.9930
0166 1420453247 18.1467
0167 1420454467 18.1857
0168 1420455688 18.5691
0169 1420456909 18.5645
0170 1420458129 18.5715
0171 1420459350 18.5915
0172 1420460571 18.4312
0173 1420461791 18.7859
0174 1420463012 18.5235
0175 1420464233 18.5996
0176 1420465454 18.6556
0177 1420466674 18.9575
0178 1420467895 19.2680
0179 1420469116 19.2557
0180 1420470336 19.2559
0181 1420471557 19.5243
0182 1420472778 19.7991
0183 1420473999 19.5550
0184 1420475219 19.8172
0185 1420476440 19.6052
0186 1420477661 19.9434
0187 1420478881 20.0565
0188 1420480102 20.0090
0189 1420481323 20.4712
0190 1420482543 20.6131
0191 1420483764 20.7390
0192 1420484985 20.6515
0193 1420486206 20.6919
0194 1420487426 20.6632
0195 1420488647 20.9147
0196 1420489868 21.0318
0197 1420491088 20.9994
0198 1420492309 20.8616
0199 1420493530 21.1156
0200 1420494750 21.3175
0201 1420495971 21.5933
0202 1420497192 21.8466
0203 1420498413 22.3265
0204 1420499633 22.5167
0205 1420500854 21.8491
0206 1420502075 22.0956
0207 1420503295 22.1516
0208 1420504516 22.3149
0209 1420505737 22.5573
0210 1420506958 22.4986
0211 1420508178 22.6847
0212 1420509399 22.7001
0213 1420510620 23.0200
0214 1420511840 22.6607
0215 1420513061 22.3828
0216 1420514282 23.0070
0217 1420515502 23.0536
0218 1420516723 23.0367
0219 1420517944 23.3258
0220 1420519165 23.4559
0221 1420520385 23.7045
0222 1420521606 24.0118
0223 1420522827 24.0511
0224 1420524047 23.9722
0225 1420525268 24.4117
0226 1420526489 24.3089
0227 1420527709 23.9984
0228 1420528930 24.2298
0229 1420530151 24.3160
0230 1420531372 24.1630
0231 1420532592 24.7739
0232 1420533813 24.6326
0233 1420535034 24.9043
0234 1420536254 24.7405
0235 1420537475 25.1103
0236 1420538696 25.0364
0237 1420539916 24.8716
0238 1420541137 25.6215
0239 1420542358 25.3303
0240 1420543579 24.9737
0241 1420544799 25.6623
0242 1420546020 25.6817
0243 1420547241 25.6239
0244 1420548461 25.4658
0245 1420549682 26.0002
0246 1420550903 26.2923
0247 1420552124 26.3261
0248 1420553344 26.2842
0249 1420554565 25.6633
0250 1420555786 26.3578
0251 1420557006 26.0823
0252 1420558227 26.6701
0253 1420559448 26.8994
0254 1420560668 26.8391
0255 1420561889 26.7002
0256 1420563110 26.6925
0257 1420564331 26.7962
0258 1420565551 27.3025
0259 1420566772 26.9268
0260 1420567993 27.1530
0261 1420569213 27.1799
0262 1420570434 27.1742
0263 1420571655 27.7326
0264 1420572875 27.4525
0265 1420574096 27.4362
0266 1420575317 28.1067
0267 1420576538 27.5181
0268 1420577758 27.8616
0269 1420578979 28.2207
0270 1420580200 28.0371
0271 1420581420 28.4171
0272 1420582641 28.1246
0273 1420583862 28.3713
0274 1420585083 28.6891
0275 1420586303 29.0211
0276 1420587524 29.0885
0277 1420588745 30.0936
0278 1420589965 29.6383
0279 1420591186 29.8827
0280 1420592407 30.1772
0281 1420593627 29.9494
0282 1420594848 29.5025
0283 1420596069 29.2504
0284 1420597290 29.1572
0285 1420598510 29.6955
0286 1420599731 29.6155
0287 1420600952 29.5947
0288 1420602172 29.4840
0289 1420603393 29.5465
0290 1420604614 29.7278
0291 1420605834 30.1677
0292 1420607055 29.9634
0293 1420608276 30.1564
0294 1420609497 30.1322
0295 1420610717 30.2828
0296 1420611938 30.8856
0297 1420613159 30.5518
0298 1420614379 30.4030
0299 1420615600 30.1648
0300 1420616821 30.7434
0301 1420618041 30.7746
0302 1420619262 30.6046
0303 1420620483 31.1165
0304 1420621704 30.9482
0305 1420622924 30.5815
0306 1420624145 30.9238
0307 1420625366 30.9857
0308 1420626586 31.6721
0309 1420627807 31.4030
0310 1420629028 31.1935
0311 1420630249 31.3314
0312 1420631469 31.5297
0313 1420632690 31.5849
0314 1420633911 32.0910
0315 1420635131 33.4596
0316 1420636352 31.9971
0317 1420637573 31.8184
0318 1420638793 31.2998
0319 1420640014 31.9316
0320 1420641235 32.4073
0321 1420642456 31.8454
0322 1420643676 32.1305
0323 1420644897 32.1546
0324 1420646118 32.2469
0325 1420647338 31.9297
0326 1420648559 32.3593
0327 1420649780 32.7527
0328 1420651000 32.7060
0329 1420652221 32.5217
0330 1420653442 32.5047
0331 1420654663 32.7882
0332 1420655883 33.1345
0333 1420657104 32.9528
0334 1420658325 33.2586
0335 1420659545 33.5177
0336 1420660766 34.0580
0337 1420661987 33.0514
0338 1420663208 32.9604
0339 1420664428 33.1388
0340 1420665649 32.9294
0341 1420666870 33.0556
0342 1420668090 33.0259
0343 1420669311 33.3830
0344 1420670532 32.9799
0345 1420671752 33.5143
0346 1420672973 33.1515
0347 1420674194 33.2266
0348 1420675415 33.5973
0349 1420676635 33.1396
0350 1420677856 33.9092
0351 1420679077 33.6486
0352 1420680297 33.7729
0353 1420681518 33.9358
0354 1420682739 33.9330
0355 1420683959 34.1817
0356 1420685180 34.3732
0357 1420686401 34.1247
0358 1420687622 34.4543
0359 1420688842 34.1217
0360 1420690063 34.3840
0361 1420691284 34.7021
0362 1420692504 34.7539
0363 1420693725 34.3124
0364 1420694946 34.3834
0365 1420696166 34.3705
0366 1420697387 34.1545
0367 1420698608 34.5286
0368 1420699829 34.6800
0369 1420701049 34.0699
0370 1420702270 34.1174
0371 1420703491 34.3820
0372 1420704711 34.3159
0373 1420705932 34.6603
0374 1420707153 34.7428
0375 1420708374 35.0164
0376 1420709594 34.3406
0377 1420710815 35.2952
0378 1420712036 34.4417
0379 1420713256 34.4297
0380 1420714477 34.6538
0381 1420715698 35.0633
0382 1420716918 35.0273
0383 1420718139 35.2369
0384 1420719360 35.2537
0385 1420720581 35.4480
0386 1420721801 34.8909
0387 1420723022 35.1090
0388 1420724243 35.5298
0389 1420725463 35.2068
0390 1420726684 34.9680
0391 1420727905 35.0094
0392 1420729125 35.1102
0393 1420730346 34.5818
0394 1420731567 34.9973
0395 1420732788 35.0462
0396 1420734008 35.5387
0397 1420735229 35.3335
0398 1420736450 35.8326
0399 1420737670 35.6399
0400 1420738891 35.6305
0401 1420740112 35.7270
0402 1420741333 35.3143
0403 1420742553 35.5873
0404 1420743774 35.6558
0405 1420744995 36.0460
0406 1420746215 35.9560
0407 1420747436 36.0368
0408 1420748657 36.2250
0409 1420749877 36.0445
0410 1420751098 35.7029
0411 1420752319 35.5503
0412 1420753540 35.3765
0413 1420754760 35.7438
0414 1420755981 35.9054
0415 1420757202 35.9221
0416 1420758422 35.9701
0417 1420759643 35.7288
0418 1420760864 35.8523
0419 1420762084 36.0188
0420 1420763305 36.2919
0421 1420764526 35.6289
0422 1420765747 35.3842
0423 1420766967 35.7825
0424 1420768188 36.0567
0425 1420769409 36.5994
0426 1420770629 36.1639
0427 1420771850 36.0954
0428 1420773071 36.2726
0429 1420774291 36.4640
0430 1420775512 36.4440
0431 1420776733 36.2250
0432 1420777954 36.1881
0433 1420779174 36.2575
0434 1420780395 36.0238
0435 1420781616 35.9698
0436 1420782836 36.2084
0437 1420784057 36.4449
0438 1420785278 36.2755
0439 1420786499 36.1012
0440 1420787719 35.9009
0441 1420788940 36.2813
0442 1420790161 36.5299
0443 1420791381 36.7277
0444 1420792602 36.3698
0445 1420793823 36.0433
0446 1420795043 36.6584
0447 1420796264 36.6727
0448 1420797485 36.2408
0449 1420798706 35.8558
0450 1420799926 36.5083
0451 1420801147 37.3136
0452 1420802368 37.5855
0453 1420803588 39.1488
0454 1420804809 36.3397
0455 1420806030 35.9533
0456 1420807250 36.1886
0457 1420808471 36.6436
0458 1420809692 36.7006
0459 1420810913 36.2804
0460 1420812133 36.1446
0461 1420813354 35.9625
0462 1420814575 36.4977
0463 1420815795 36.5469
0464 1420817016 36.6408
0465 1420818237 36.2581
0466 1420819458 36.1998
0467 1420820678 36.9073
0468 1420821899 36.7603
0469 1420823120 36.3031
0470 1420824340 36.4103
0471 1420825561 36.1747
0472 1420826782 36.6536
0473 1420828002 36.6201
0474 1420829223 36.3615
0475 1420830444 36.4749
0476 1420831665 36.5181
0477 1420832885 36.5389
0478 1420834106 36.4795
0479 1420835327 36.7367
0480 1420836547 36.4830
0481 1420837768 36.8684
0482 1420838989 36.2901
0483 1420840209 36.4965
0484 1420841430 35.7526
0485 1420842651 35.9294
0486 1420843872 35.6996
0487 1420845092 36.3586
0488 1420846313 37.0156
0489 1420847534 36.5285
0490 1420848754 36.5239
0491 1420849975 36.5692
0492 1420851196 36.4694
0493 1420852416 36.7340
0494 1420853637 36.4507
0495 1420854858 36.3591
0496 1420856079 36.0111
0497 1420857299 36.1688
0498 1420858520 36.5357
0499 1420859741 36.5573
0500 1420860961 36.4797
0501 1420862182 36.1042
0502 1420863403 36.7470
0503 1420864624 36.8243
0504 1420865844 36.6675
0505 1420867065 36.3148
0506 1420868286 35.9582
0507 1420869506 35.8011
0508 1420870727 36.2730
0509 1420871948 35.9080
0510 1420873168 36.1546
0511 1420874389 36.1056
0512 1420875610 35.9218
0513 1420876831 35.9926
0514 1420878051 36.2891
0515 1420879272 36.9900
0516 1420880493 36.2173
0517 1420881713 36.1146
0518 1420882934 35.8190
0519 1420884155 36.3190
0520 1420885375 36.3358
0521 1420886596 36.5838
0522 1420887817 35.7850
0523 1420889038 36.2556
0524 1420890258 36.2867
0525 1420891479 36.4968
0526 1420892700 36.8645
0527 1420893920 36.1747
0528 1420895141 36.1549
0529 1420896362 36.5536
0530 1420897583 35.9429
0531 1420898803 36.0152
0532 1420900024 35.5749
0533 1420901245 35.7424
0534 1420902465 36.1603
0535 1420903686 35.7736
0536 1420904907 35.5387
0537 1420906127 36.0721
0538 1420907348 36.2529
0539 1420908569 36.3005
0540 1420909790 36.1753
0541 1420911010 36.2507
0542 1420912231 36.6589
0543 1420913452 36.2206
0544 1420914672 35.9248
0545 1420915893 36.4143
0546 1420917114 36.1834
0547 1420918334 35.5835
0548 1420919555 36.2942
0549 1420920776 36.0434
0550 1420921997 35.8919
0551 1420923217 35.6082
0552 1420924438 35.5865
0553 1420925659 35.8085
0554 1420926879 35.9861
0555 1420928100 35.9551
0556 1420929321 36.0023
0557 1420930541 35.7302
0558 1420931762 35.5051
0559 1420932983 36.3145
0560 1420934204 36.4179
0561 1420935424 35.7221
0562 1420936645 35.9283
0563 1420937866 36.0628
0564 1420939086 35.9810
0565 1420940307 36.0330
0566 1420941528 35.7793
0567 1420942749 36.3178
0568 1420943969 35.8781
0569 1420945190 36.7366
0570 1420946411 36.1135
0571 1420947631 36.4977
0572 1420948852 35.9330
0573 1420950073 37.2743
0574 1420951293 36.4663
0575 1420952514 35.7575
0576 1420953735 35.7636
0577 1420954956 36.0619
0578 1420956176 36.4423
0579 1420957397 36.2772
0580 1420958618 35.8951
0581 1420959838 35.9472
0582 1420961059 35.4818
0583 1420962280 35.6174
0584 1420963500 36.4563
0585 1420964721 36.3024
0586 1420965942 36.2709
0587 1420967163 36.3274
0588 1420968383 35.8724
0589 1420969604 35.6955
0590 1420970825 35.6551
0591 1420972045 35.6778
0592 1420973266 35.8773
0593 1420974487 36.2174
0594 1420975708 36.6350
0595 1420976928 35.8576
0596 1420978149 35.5398
0597 1420979370 35.7323
0598 1420980590 36.1099
0599 1420981811 35.6762
0600 1420983032 35.7961
0601 1420984252 35.8465
0602 1420985473 36.1775
0603 1420986694 35.8378
0604 1420987915 35.8423
0605 1420989135 36.1069
0606 1420990356 35.3261
0607 1420991577 36.0778
0608 1420992797 36.2052
0609 1420994018 36.0270
0610 1420995239 35.4334
0611 1420996459 35.9645
0612 1420997680 36.5738
0613 1420998901 36.4691
0614 1421000122 35.7291
0615 1421001342 35.8046
0616 1421002563 35.5081
0617 1421003784 35.6707
0618 1421005004 35.5672
0619 1421006225 35.7606
0620 1421007446 35.5029
0621 1421008666 35.5145
0622 1421009887 35.9498
0623 1421011108 36.1191
0624 1421012329 36.4992
0625 1421013549 36.3480
0626 1421014770 36.5473
0627 1421015991 36.4342
0628 1421017211 36.9078
0629 1421018432 36.6601
0630 1421019653 36.4690
0631 1421020874 35.8926
0632 1421022094 35.8287
0633 1421023315 36.1382
0634 1421024536 35.6164
0635 1421025756 35.8169
0636 1421026977 35.7744
0637 1421028198 35.9578
0638 1421029418 36.0098
0639 1421030639 35.9587
0640 1421031860 36.1812
0641 1421033081 36.1455
0642 1421034301 36.1055
0643 1421035522 35.3655
0644 1421036743 36.0460
0645 1421037963 35.5963
0646 1421039184 35.6736
0647 1421040405 36.5496
0648 1421041625 36.0765
0649 1421042846 35.9555
0650 1421044067 35.8874
0651 1421045288 36.2226
0652 1421046508 36.3219
0653 1421047729 35.9220
0654 1421048950 35.8394
0655 1421050170 35.9789
0656 1421051391 35.9660
0657 1421052612 36.1524
0658 1421053833 35.8533
0659 1421055053 36.2728
0660 1421056274 36.3583
0661 1421057495 36.2429
0662 1421058715 35.8058
0663 1421059936 36.1761
0664 1421061157 35.9488
0665 1421062377 35.9300
0666 1421063598 36.1937
0667 1421064819 36.1638
0668 1421066040 35.8551
0669 1421067260 35.5034
0670 1421068481 35.9616
0671 1421069702 36.2348
0672 1421070922 35.4970
0673 1421072143 35.8208
0674 1421073364 36.3386
0675 1421074584 36.7660
0676 1421075805 36.1172
0677 1421077026 36.1994
0678 1421078247 36.4548
0679 1421079467 36.3303
0680 1421080688 37.0583
0681 1421081909 37.3920
0682 1421083129 37.3197
0683 1421084350 37.0944
0684 1421085571 37.7173
0685 1421086791 38.0000
0686 1421088012 36.7817
0687 1421089233 36.3226
0688 1421090454 36.0756
0689 1421091674 36.3566
0690 1421092895 36.1699
0691 1421094116 36.2688
0692 1421095336 36.3231
0693 1421096557 36.2697
0694 1421097778 37.0760
0695 1421098999 37.0638
0696 1421100219 36.8045
0697 1421101440 36.4694
0698 1421102661 36.1758
0699 1421103881 36.6119
0700 1421105102 36.7855
0701 1421106323 36.5150
0702 1421107543 36.6056
0703 1421108764 36.4463
0704 1421109985 36.6881
0705 1421111206 36.8759
0706 1421112426 36.8383
0707 1421113647 37.0025
0708 1421114868 36.3145
0709 1421116088 36.2116
0710 1421117309 36.3799
0711 1421118530 36.3942
0712 1421119750 36.9994
0713 1421120971 36.8536
0714 1421122192 36.8088
0715 1421123413 36.5718
0716 1421124633 36.0072
0717 1421125854 36.9371
0718 1421127075 37.0331
0719 1421128295 36.8184
0720 1421129516 37.0071
0721 1421130737 36.9247
0722 1421131958 36.9483
0723 1421133178 37.0256
0724 1421134399 36.6611
0725 1421135620 37.0596
0726 1421136840 36.9433
0727 1421138061 36.7250
0728 1421139282 36.7120
0729 1421140502 36.6192
0730 1421141723 37.0278
0731 1421142944 36.6185
0732 1421144165 37.2465
0733 1421145385 36.7463
0734 1421146606 37.1138
0735 1421147827 37.2775
0736 1421149047 38.0000
0737 1421150268 37.7026
0738 1421151489 37.9516
0739 1421152709 38.2067
0740 1421153930 38.0634
0741 1421155151 38.1145
0742 1421156372 37.1511
0743 1421157592 36.9421
0744 1421158813 37.6881
0745 1421160034 37.5779
0746 1421161254 36.8890
0747 1421162475 37.5765
0748 1421163696 37.5690
0749 1421164916 37.6307
0750 1421166137 37.8820
0751 1421167358 37.3449
0752 1421168579 37.2773
0753 1421169799 37.3299
0754 1421171020 38.0030
0755 1421172241 37.9402
0756 1421173461 37.6138
0757 1421174682 37.2817
0758 1421175903 38.0166
0759 1421177124 37.9827
0760 1421178344 37.8982
0761 1421179565 37.4196
0762 1421180786 37.4411
0763 1421182006 37.5809
0764 1421183227 38.6323
0765 1421184448 38.1702
0766 1421185668 38.3873
0767 1421186889 38.1409
0768 1421188110 38.7234
0769 1421189331 38.5030
0770 1421190551 37.7411
0771 1421191772 38.1224
0772 1421192993 37.7149
0773 1421194213 37.7869
0774 1421195434 38.3534
0775 1421196655 38.0165
0776 1421197875 37.9994
0777 1421199096 38.1238
0778 1421200317 38.2170
0779 1421201538 38.2069
0780 1421202758 38.4062
0781 1421203979 38.4133
0782 1421205200 38.6704
0783 1421206420 39.2140
0784 1421207641 38.4119
0785 1421208862 39.2402
0786 1421210083 38.7979
0787 1421211303 38.4745
0788 1421212524 38.5464
0789 1421213745 39.0222
0790 1421214965 39.6374
0791 1421216186 40.0436
0792 1421217407 40.0558
0793 1421218627 40.0415
0794 1421219848 40.3317
0795 1421221069 39.9028
0796 1421222290 39.8590
0797 1421223510 39.3462
0798 1421224731 39.1866
0799 1421225952 39.9975
0800 1421227172 39.6971
0801 1421228393 39.2497
0802 1421229614 39.2935
0803 1421230834 39.4036
0804 1421232055 39.3047
0805 1421233276 39.3739
0806 1421234497 39.7815
0807 1421235717 39.6443
0808 1421236938 38.8173
0809 1421238159 39.3976
0810 1421239379 39.4843
0811 1421240600 39.2922
0812 1421241821 40.1780
0813 1421243041 40.0593
0814 1421244262 39.7476
0815 1421245483 40.2598
0816 1421246704 39.4245
0817 1421247924 39.6511
0818 1421249145 39.8744
0819 1421250366 39.7124
0820 1421251586 39.8809
0821 1421252807 39.6486
0822 1421254028 40.4161
0823 1421255249 40.5011
0824 1421256469 40.3116
0825 1421257690 40.1058
0826 1421258911 40.4526
0827 1421260131 40.1266
0828 1421261352 40.1944
0829 1421262573 40.3604
0830 1421263793 41.0277
0831 1421265014 40.2421
0832 1421266235 40.0638
0833 1421267456 40.6266
0834 1421268676 40.3324
0835 1421269897 40.1301
0836 1421271118 40.2522
0837 1421272338 40.4109
0838 1421273559 41.1502
0839 1421274780 40.7394
0840 1421276000 39.7245
0841 1421277221 40.0411
0842 1421278442 40.6701
0843 1421279663 40.7283
0844 1421280883 41.2363
0845 1421282104 41.5868
0846 1421283325 42.9006
0847 1421284545 43.5288
0848 1421285766 43.1664
0849 1421286987 42.9270
0850 1421288208 43.0562
0851 1421289428 42.4251
0852 1421290649 41.6729
0853 1421291870 41.1691
0854 1421293090 41.7515
0855 1421294311 41.1502
0856 1421295532 40.7201
0857 1421296752 40.9059
0858 1421297973 41.0632
0859 1421299194 40.8772
0860 1421300415 41.4007
0861 1421301635 41.1677
0862 1421302856 41.0500
0863 1421304077 41.6782
0864 1421305297 41.1337
0865 1421306518 41.6873
0866 1421307739 41.7826
0867 1421308959 42.0726
0868 1421310180 41.4096
0869 1421311401 41.4739
0870 1421312622 41.4899
0871 1421313842 42.0230
0872 1421315063 41.6342
0873 1421316284 41.7955
0874 1421317504 42.0791
0875 1421318725 41.5731
0876 1421319946 42.1464
0877 1421321166 41.7502
0878 1421322387 42.0396
0879 1421323608 42.3281
0880 1421324829 42.2844
0881 1421326049 41.8473
0882 1421327270 42.1820
0883 1421328491 42.3323
0884 1421329711 42.2628
0885 1421330932 42.0949
0886 1421332153 42.3471
0887 1421333374 41.2964
0888 1421334594 41.5368
0889 1421335815 41.8926
0890 1421337036 42.3465
0891 1421338256 42.4599
0892 1421339477 42.6152
0893 1421340698 42.1457
0894 1421341918 42.8658
0895 1421343139 42.5867
0896 1421344360 43.0744
0897 1421345581 42.5062
0898 1421346801 42.9830
0899 1421348022 43.0911
0900 1421349243 43.0050
0901 1421350463 44.4961
0902 1421351684 45.4623
0903 1421352905 45.9913
0904 1421354125 45.9206
0905 1421355346 46.3775
0906 1421356567 45.4394
0907 1421357788 44.2434
0908 1421359008 43.3439
0909 1421360229 43.7940
0910 1421361450 43.1476
0911 1421362670 43.3416
0912 1421363891 43.0999
0913 1421365112 43.6158
0914 1421366333 42.4527
0915 1421367553 43.0285
0916 1421368774 43.4252
0917 1421369995 43.6624
0918 1421371215 43.6390
0919 1421372436 43.1093
0920 1421373657 43.5881
0921 1421374877 43.2803
0922 1421376098 43.3550
0923 1421377319 43.6601
0924 1421378540 43.6873
0925 1421379760 43.1291
0926 1421380981 44.7935
0927 1421382202 43.7253
0928 1421383422 43.4659
0929 1421384643 43.6149
0930 1421385864 44.0877
0931 1421387084 43.6889
0932 1421388305 43.5623
0933 1421389526 43.5992
0934 1421390747 43.8212
0935 1421391967 43.6940
0936 1421393188 43.4735
0937 1421394409 44.3640
0938 1421395629 43.9465
0939 1421396850 43.7825
0940 1421398071 43.6097
0941 1421399291 43.4413
0942 1421400512 43.8845
0943 1421401733 43.5065
0944 1421402954 43.8236
0945 1421404174 43.7338
0946 1421405395 43.8715
0947 1421406616 43.7734
0948 1421407836 44.2915
0949 1421409057 44.3356
0950 1421410278 44.7675
0951 1421411499 44.1781
0952 1421412719 44.1637
0953 1421413940 43.9218
0954 1421415161 44.0053
0955 1421416381 44.6208
0956 1421417602 44.8938
0957 1421418823 45.8348
0958 1421420043 45.5293
0959 1421421264 45.3857
0960 1421422485 45.2557
0961 1421423706 45.0198
0962 1421424926 44.8434
0963 1421426147 44.8264
0964 1421427368 44.7586
0965 1421428588 44.3886
0966 1421429809 44.2858
0967 1421431030 45.0903
0968 1421432250 44.7831
0969 1421433471 44.4847
0970 1421434692 43.8854
0971 1421435913 44.2321
0972 1421437133 44.7451
0973 1421438354 44.8324
0974 1421439575 45.1086
0975 1421440795 45.1002
0976 1421442016 45.1959
0977 1421443237 45.7644
0978 1421444458 44.9769
0979 1421445678 44.4493
0980 1421446899 44.5921
0981 1421448120 44.8567
0982 1421449340 44.7706
0983 1421450561 45.0299
0984 1421451782 44.6469
0985 1421453002 45.4661
0986 1421454223 45.0093
0987 1421455444 44.6995
0988 1421456665 44.5121
0989 1421457885 45.0138
0990 1421459106 44.8435
0991 1421460327 45.1034
0992 1421461547 44.7776
0993 1421462768 45.0476
0994 1421463989 45.0871
0995 1421465209 45.3011
0996 1421466430 45.4536
0997 1421467651 45.6682
0998 1421468872 45.4408
0999 1421470092 45.5854
1000 1421471313 45.9123
1001 1421472534 45.7178
1002 1421473754 45.4118
1003 1421474975 45.4743
1004 1421476196 45.6341
1005 1421477416 45.4962
1006 1421478637 45.1457
1007 1421479858 44.7779
1008 1421481079 45.5914
1009 1421482299 46.0066
1010 1421483520 46.2981
1011 1421484741 46.1289
1012 1421485961 46.8691
1013 1421487182 46.5337
1014 1421488403 46.9532
1015 1421489624 46.6846
1016 1421490844 46.4780
1017 1421492065 47.3137
1018 1421493286 47.4044
1019 1421494506 47.5871
1020 1421495727 48.3630
1021 1421496948 49.0836
1022 1421498168 50.0778
1023 1421499389 51.0265
1024 1421500610 45.8417
1025 1421501831 50.3888
1026 1421503051 50.7142
1027 1421504272 49.4736
1028 1421505493 47.9915
1029 1421506713 47.6761
1030 1421507934 47.3060
1031 1421509155 47.0520
1032 1421510375 45.7208
1033 1421511596 46.0048
1034 1421512817 46.4498
1035 1421514038 46.5514
1036 1421515258 46.0874
1037 1421516479 46.0858
1038 1421517700 45.8765
1039 1421518920 46.1836
1040 1421520141 46.0286
1041 1421521362 45.5383
1042 1421522583 45.8888
1043 1421523803 44.8776
1044 1421525024 44.9143
1045 1421526245 45.6719
1046 1421527465 45.1254
1047 1421528686 45.1160
1048 1421529907 45.0428
1049 1421531127 44.8146
1050 1421532348 45.7866
1051 1421533569 45.3382
1052 1421534790 45.7789
1053 1421536010 45.4238
1054 1421537231 45.4054
1055 1421538452 45.2215
1056 1421539672 45.3889
1057 1421540893 44.6332
1058 1421542114 44.9501
1059 1421543334 44.9699
1060 1421544555 45.1227
1061 1421545776 45.3120
1062 1421546997 45.8250
1063 1421548217 46.0877
1064 1421549438 44.6872
1065 1421550659 45.0223
1066 1421551879 44.5677
1067 1421553100 45.1743
1068 1421554321 44.6911
1069 1421555541 44.8191
1070 1421556762 45.1579
1071 1421557983 45.1584
1072 1421559204 44.7811
1073 1421560424 44.8816
1074 1421561645 44.5443
1075 1421562866 44.3375
1076 1421564086 45.0287
1077 1421565307 45.4922
1078 1421566528 45.1347
1079 1421567749 44.5166
1080 1421568969 44.6334
1081 1421570190 45.1928
1082 1421571411 44.0464
1083 1421572631 45.0252
1084 1421573852 44.1203
1085 1421575073 44.2566
1086 1421576293 44.2897
1087 1421577514 44.2455
1088 1421578735 44.9374
1089 1421579956 44.6489
1090 1421581176 44.3394
1091 1421582397 44.7026
1092 1421583618 43.8280
1093 1421584838 44.6431
1094 1421586059 44.4784
1095 1421587280 44.0604
1096 1421588500 44.8166
1097 1421589721 44.3887
1098 1421590942 44.1133
1099 1421592163 44.1802
1100 1421593383 43.7124
1101 1421594604 43.6999
1102 1421595825 44.1436
1103 1421597045 44.2069
1104 1421598266 43.9544
1105 1421599487 43.9044
1106 1421600708 43.9999
1107 1421601928 44.5026
1108 1421603149 43.7308
1109 1421604370 43.6161
1110 1421605590 43.4074
1111 1421606811 43.9278
1112 1421608032 44.1960
1113 1421609252 43.7761
1114 1421610473 44.0473
1115 1421611694 44.1806
1116 1421612915 44.7336
1117 1421614135 43.7950
1118 1421615356 43.8081
1119 1421616577 43.5094
1120 1421617797 43.1521
1121 1421619018 43.3562
1122 1421620239 43.8017
1123 1421621459 43.0531
1124 1421622680 43.7046
1125 1421623901 43.9343
1126 1421625122 42.9857
1127 1421626342 43.7005
1128 1421627563 42.9362
1129 1421628784 43.3647
1130 1421630004 43.0246
1131 1421631225 43.4566
1132 1421632446 43.1425
1133 1421633666 43.5343
1134 1421634887 43.4006
1135 1421636108 43.2002
1136 1421637329 43.5292
1137 1421638549 43.5479
1138 1421639770 42.9962
1139 1421640991 43.4559
1140 1421642211 43.2478
1141 1421643432 42.8442
1142 1421644653 43.2143
1143 1421645874 43.1989
1144 1421647094 43.2711
1145 1421648315 43.8528
1146 1421649536 43.6690
1147 1421650756 43.4309
1148 1421651977 43.3767
1149 1421653198 43.4988
1150 1421654418 42.9091
1151 1421655639 42.7269
1152 1421656860 42.8311
1153 1421658081 42.6520
1154 1421659301 42.7654
1155 1421660522 42.8608
1156 1421661743 42.8724
1157 1421662963 42.6805
1158 1421664184 42.6095
1159 1421665405 42.6959
1160 1421666625 42.4917
1161 1421667846 42.4326
1162 1421669067 42.6994
1163 1421670288 42.3801
1164 1421671508 42.7723
1165 1421672729 42.3239
1166 1421673950 41.8660
1167 1421675170 42.9891
1168 1421676391 42.4413
1169 1421677612 42.6749
1170 1421678833 42.0767
1171 1421680053 41.3388
1172 1421681274 41.7018
1173 1421682495 42.3389
1174 1421683715 42.2690
1175 1421684936 42.3827
1176 1421686157 42.5680
1177 1421687377 42.3010
1178 1421688598 41.3477
1179 1421689819 42.2857
1180 1421691040 42.1234
1181 1421692260 41.9735
1182 1421693481 41.6931
1183 1421694702 41.5749
1184 1421695922 42.2624
1185 1421697143 42.1526
1186 1421698364 41.7462
1187 1421699584 41.6023
1188 1421700805 41.7375
1189 1421702026 41.6057
1190 1421703247 41.2898
1191 1421704467 42.3180
1192 1421705688 42.0555
1193 1421706909 41.8469
1194 1421708129 41.6199
1195 1421709350 41.4585
1196 1421710571 40.8265
1197 1421711791 41.5116
1198 1421713012 41.1207
1199 1421714233 40.9374
1200 1421715454 41.0889
1201 1421716674 41.4976
1202 1421717895 41.3237
1203 1421719116 41.3626
1204 1421720336 40.9860
1205 1421721557 40.7175
1206 1421722778 40.8948
1207 1421723999 41.0731
1208 1421725219 40.9394
1209 1421726440 41.2789
1210 1421727661 40.5731
1211 1421728881 41.5225
1212 1421730102 40.5241
1213 1421731323 40.8485
1214 1421732543 40.7550
1215 1421733764 40.6260
1216 1421734985 40.6168
1217 1421736206 40.9666
1218 1421737426 40.8545
1219 1421738647 40.1702
1220 1421739868 40.4473
1221 1421741088 40.8942
1222 1421742309 40.5660
1223 1421743530 40.4728
1224 1421744750 40.6333
1225 1421745971 40.8913
1226 1421747192 40.4313
1227 1421748413 40.0793
1228 1421749633 40.2720
1229 1421750854 40.4372
1230 1421752075 40.4680
1231 1421753295 40.2988
1232 1421754516 40.8206
1233 1421755737 41.0577
1234 1421756958 40.3347
1235 1421758178 41.1617
1236 1421759399 40.1185
1237 1421760620 39.7196
1238 1421761840 40.2127
1239 1421763061 40.0848
1240 1421764282 40.2211
1241 1421765502 39.4243
1242 1421766723 40.0517
1243 1421767944 40.1420
1244 1421769165 39.9142
1245 1421770385 40.1536
1246 1421771606 40.3149
1247 1421772827 40.1262
1248 1421774047 39.6397
1249 1421775268 39.3663
1250 1421776489 39.7494
1251 1421777709 39.6091
1252 1421778930 39.7025
1253 1421780151 39.6129
1254 1421781372 39.1257
1255 1421782592 38.4533
1256 1421783813 39.4760
1257 1421785034 39.5784
1258 1421786254 39.4067
1259 1421787475 39.3017
1260 1421788696 39.4096
1261 1421789916 38.9438
1262 1421791137 38.8940
1263 1421792358 39.1276
1264 1421793579 39.4347
1265 1421794799 39.2105
1266 1421796020 39.1514
1267 1421797241 39.3154
1268 1421798461 38.9592
1269 1421799682 39.0394
1270 1421800903 39.2490
1271 1421802124 38.7353
1272 1421803344 38.8188
1273 1421804565 39.5618
1274 1421805786 42.8385
1275 1421807006 39.7824
1276 1421808227 38.6289
1277 1421809448 39.0529
1278 1421810668 38.4853
1279 1421811889 39.3543
1280 1421813110 38.9712
1281 1421814331 38.8132
1282 1421815551 38.8947
1283 1421816772 39.1747
1284 1421817993 39.4480
1285 1421819213 38.5710
1286 1421820434 38.9213
1287 1421821655 39.0474
1288 1421822875 38.9769
1289 1421824096 38.9526
1290 1421825317 38.6009
1291 1421826538 38.8755
1292 1421827758 38.6269
1293 1421828979 38.2487
1294 1421830200 38.0925
1295 1421831420 38.6988
1296 1421832641 38.3136
1297 1421833862 38.4387
1298 1421835083 37.7087
1299 1421836303 38.0690
1300 1421837524 38.6776
1301 1421838745 38.3517
1302 1421839965 38.0961
1303 1421841186 38.2314
1304 1421842407 38.1310
1305 1421843627 38.4876
1306 1421844848 38.7771
1307 1421846069 38.1192
1308 1421847290 38.2823
1309 1421848510 38.7056
1310 1421849731 38.7494
1311 1421850952 38.4050
1312 1421852172 38.6000
1313 1421853393 38.5054
1314 1421854614 38.4125
1315 1421855834 38.2968
1316 1421857055 37.8848
1317 1421858276 37.7130
1318 1421859497 37.7855
1319 1421860717 37.9109
1320 1421861938 38.1689
1321 1421863159 39.0084
1322 1421864379 40.4132
1323 1421865600 39.9295
1324 1421866821 39.0360
1325 1421868041 38.3745
1326 1421869262 37.8556
1327 1421870483 38.6609
1328 1421871704 37.7532
1329 1421872924 37.2399
1330 1421874145 37.8065
1331 1421875366 37.8735
1332 1421876586 37.7627
1333 1421877807 37.8833
1334 1421879028 37.1232
1335 1421880249 37.4310
1336 1421881469 37.8550
1337 1421882690 37.7037
1338 1421883911 37.6994
1339 1421885131 37.4680
1340 1421886352 37.9207
1341 1421887573 37.5894
1342 1421888793 37.6137
1343 1421890014 37.7725
1344 1421891235 37.7494
1345 1421892456 37.2638
1346 1421893676 37.8639
1347 1421894897 37.4514
1348 1421896118 37.2206
1349 1421897338 37.6377
1350 1421898559 37.9200
1351 1421899780 37.6606
1352 1421901000 37.5700
1353 1421902221 36.9075
1354 1421903442 37.4960
1355 1421904663 37.1460
1356 1421905883 36.9134
1357 1421907104 37.2314
1358 1421908325 37.5716
1359 1421909545 37.3712
1360 1421910766 37.0022
1361 1421911987 36.9817
1362 1421913208 37.3120
1363 1421914428 37.2238
1364 1421915649 37.4504
1365 1421916870 37.7662
1366 1421918090 36.9928
1367 1421919311 37.1641
1368 1421920532 37.0530
1369 1421921752 37.1033
1370 1421922973 36.9585
1371 1421924194 36.8861
1372 1421925415 37.0313
1373 1421926635 36.9956
1374 1421927856 36.8236
1375 1421929077 36.8364
1376 1421930297 37.4041
1377 1421931518 37.3151
1378 1421932739 37.1101
1379 1421933959 36.9932
1380 1421935180 37.4180
1381 1421936401 37.2550
1382 1421937622 37.4975
1383 1421938842 36.9340
1384 1421940063 37.5696
1385 1421941284 37.3828
1386 1421942504 37.4343
1387 1421943725 36.9658
1388 1421944946 37.4746
1389 1421946166 37.3171
1390 1421947387 37.4342
1391 1421948608 37.0384
1392 1421949829 37.0027
1393 1421951049 36.8308
1394 1421952270 37.1660
1395 1421953491 36.7367
1396 1421954711 37.5072
1397 1421955932 37.6653
1398 1421957153 37.0774
1399 1421958374 37.2762
1400 1421959594 37.3994
1401 1421960815 37.3608
1402 1421962036 37.4596
1403 1421963256 37.3502
1404 1421964477 37.1689
1405 1421965698 36.7541
1406 1421966918 36.5008
1407 1421968139 36.7438
1408 1421969360 37.1490
1409 1421970581 37.0509
1410 1421971801 37.5519
1411 1421973022 37.4950
1412 1421974243 37.4571
1413 1421975463 37.8496
1414 1421976684 37.2504
1415 1421977905 37.1209
1416 1421979125 37.1884
1417 1421980346 37.3751
1418 1421981567 37.6531
1419 1421982788 37.2560
1420 1421984008 37.4643
1421 1421985229 37.3053
1422 1421986450 37.2998
1423 1421987670 37.5327
1424 1421988891 37.2347
1425 1421990112 36.5225
1426 1421991333 37.1497
1427 1421992553 37.0854
1428 1421993774 37.3586
1429 1421994995 37.5114
1430 1421996215 37.1171
1431 1421997436 37.4372
1432 1421998657 37.0256
1433 1421999877 37.2905
1434 1422001098 38.0114
1435 1422002319 114.9502
1436 1422003540 178.8602
1437 1422004760 44.4246
1438 1422005981 37.1298
1439 1422007202 37.0079
1440 1422008422 37.2296
1441 1422009643 37.1355
1442 1422010864 37.4568
1443 1422012084 37.2861
1444 1422013305 37.1782
1445 1422014526 37.2850
1446 1422015747 37.0753
1447 1422016967 37.5124
1448 1422018188 37.5182
1449 1422019409 37.2157
1450 1422020629 36.9319
1451 1422021850 37.4744
1452 1422023071 37.2423
1453 1422024291 37.8002
1454 1422025512 37.5952
1455 1422026733 37.2953
1456 1422027954 37.2015
1457 1422029174 37.5600
1458 1422030395 37.3342
1459 1422031616 37.2416
1460 1422032836 37.0746
1461 1422034057 37.4233
1462 1422035278 37.2813
1463 1422036499 37.7338
1464 1422037719 37.4670
1465 1422038940 37.1434
1466 1422040161 37.1181
1467 1422041381 37.3800
1468 1422042602 37.5472
1469 1422043823 37.9664
1470 1422045043 37.9493
1471 1422046264 37.2505
1472 1422047485 38.4974
1473 1422048706 38.2918
1474 1422049926 37.9772
1475 1422051147 37.6971
1476 1422052368 37.4643
1477 1422053588 37.8938
1478 1422054809 37.7309
1479 1422056030 37.6677
1480 1422057250 37.4006
1481 1422058471 37.0320
1482 1422059692 37.3413
1483 1422060913 37.7787
1484 1422062133 36.9275
1485 1422063354 37.4225
1486 1422064575 37.7218
1487 1422065795 37.9585
1488 1422067016 37.4011
1489 1422068237 37.5877
1490 1422069458 37.9034
1491 1422070678 37.6118
1492 1422071899 37.8221
1493 1422073120 37.4640
1494 1422074340 37.5112
1495 1422075561 38.3818
1496 1422076782 37.6487
1497 1422078002 37.2353
1498 1422079223 37.6082
1499 1422080444 37.8540
1500 1422081665 37.7399
1501 1422082885 37.4513
1502 1422084106 37.3982
1503 1422085327 37.9774
1504 1422086547 37.4119
1505 1422087768 37.6246
1506 1422088989 37.3181
1507 1422090209 37.6605
1508 1422091430 38.5892
1509 1422092651 37.9304
1510 1422093872 37.5337
1511 1422095092 37.3413
1512 1422096313 37.7198
1513 1422097534 37.6536
1514 1422098754 37.6205
1515 1422099975 37.0127
1516 1422101196 37.2843
1517 1422102416 37.4790
1518 1422103637 37.7399
1519 1422104858 37.8714
1520 1422106079 37.6949
1521 1422107299 38.0063
1522 1422108520 38.4779
1523 1422109741 38.0228
1524 1422110961 37.6769
1525 1422112182 37.9740
1526 1422113403 37.8034
1527 1422114624 38.4474
1528 1422115844 38.6274
1529 1422117065 38.5781
1530 1422118286 38.4027
1531 1422119506 38.8989
1532 1422120727 38.8713
1533 1422121948 38.1133
1534 1422123168 37.5709
1535 1422124389 37.9656
1536 1422125610 38.0535
1537 1422126831 38.2189
1538 1422128051 37.9861
1539 1422129272 37.8890
1540 1422130493 37.8938
1541 1422131713 38.1084
1542 1422132934 37.9963
1543 1422134155 37.8219
1544 1422135375 37.9323
1545 1422136596 37.9590
1546 1422137817 37.9207
1547 1422139038 37.9487
1548 1422140258 38.0940
1549 1422141479 37.5979
1550 1422142700 37.8333
1551 1422143920 37.9087
1552 1422145141 38.5965
1553 1422146362 38.1683
1554 1422147583 38.2006
1555 1422148803 38.3657
1556 1422150024 38.2097
1557 1422151245 38.2675
1558 1422152465 38.6080
1559 1422153686 38.0885
1560 1422154907 38.1905
1561 1422156127 38.0992
1562 1422157348 37.8052
1563 1422158569 37.8956
1564 1422159790 38.2862
1565 1422161010 37.9957
1566 1422162231 37.7627
1567 1422163452 37.9674
1568 1422164672 38.0728
1569 1422165893 38.2470
1570 1422167114 38.4802
1571 1422168334 38.5136
1572 1422169555 38.1341
1573 1422170776 38.2005
1574 1422171997 38.3307
1575 1422173217 37.9868
1576 1422174438 38.3000
1577 1422175659 38.2367
1578 1422176879 38.2373
1579 1422178100 38.0652
1580 1422179321 38.4317
1581 1422180541 38.0506
1582 1422181762 38.1672
1583 1422182983 38.3382
1584 1422184204 38.6553
1585 1422185424 38.0713
1586 1422186645 38.4389
1587 1422187866 38.0977
1588 1422189086 38.4955
1589 1422190307 38.1743
1590 1422191528 38.6568
1591 1422192749 38.4379
1592 1422193969 38.3047
1593 1422195190 38.4483
1594 1422196411 38.7329
1595 1422197631 38.5116
1596 1422198852 38.7045
1597 1422200073 41.5253
1598 1422201293 40.2449
1599 1422202514 38.6807
1600 1422203735 38.9367
1601 1422204956 39.1820
1602 1422206176 38.6362
1603 1422207397 38.0605
1604 1422208618 38.4678
1605 1422209838 38.5298
1606 1422211059 38.1467
1607 1422212280 38.5232
1608 1422213500 38.3198
1609 1422214721 38.0630
1610 1422215942 38.1478
1611 1422217163 38.2553
1612 1422218383 37.8784
1613 1422219604 38.3806
1614 1422220825 38.2140
1615 1422222045 37.7677
1616 1422223266 37.1830
1617 1422224487 38.1655
1618 1422225708 37.8452
1619 1422226928 37.8604
1620 1422228149 37.8677
1621 1422229370 37.7005
1622 1422230590 38.0837
1623 1422231811 38.0394
1624 1422233032 37.6857
1625 1422234252 37.8310
1626 1422235473 37.8961
1627 1422236694 38.3113
1628 1422237915 37.9914
1629 1422239135 37.9144
1630 1422240356 38.0025
1631 1422241577 37.9277
1632 1422242797 38.0267
1633 1422244018 38.0500
1634 1422245239 37.5450
1635 1422246459 37.4882
1636 1422247680 37.6640
1637 1422248901 37.6303
1638 1422250122 38.0507
1639 1422251342 37.8840
1640 1422252563 37.2899
1641 1422253784 37.6914
1642 1422255004 37.4959
1643 1422256225 37.6613
1644 1422257446 37.9622
1645 1422258666 37.2782
1646 1422259887 37.1192
1647 1422261108 37.4898
1648 1422262329 37.0459
1649 1422263549 37.1591
1650 1422264770 37.2714
1651 1422265991 37.3088
1652 1422267211 37.4906
1653 1422268432 37.0983
1654 1422269653 37.3648
1655 1422270874 37.2817
1656 1422272094 37.8225
1657 1422273315 37.8110
1658 1422274536 37.6804
1659 1422275756 37.4188
1660 1422276977 36.6532
1661 1422278198 37.2962
1662 1422279418 37.2446
1663 1422280639 37.1703
1664 1422281860 37.4519
1665 1422283081 37.2027
1666 1422284301 36.8399
1667 1422285522 37.1962
1668 1422286743 36.3522
1669 1422287963 36.4088
1670 1422289184 36.8893
1671 1422290405 36.7519
1672 1422291625 36.8971
1673 1422292846 36.6889
1674 1422294067 36.4319
1675 1422295288 36.5367
1676 1422296508 36.8923
1677 1422297729 36.8905
1678 1422298950 36.3106
1679 1422300170 36.4140
1680 1422301391 36.2324
1681 1422302612 36.4921
1682 1422303833 36.3469
1683 1422305053 36.2246
1684 1422306274 36.2394
1685 1422307495 36.9305
1686 1422308715 36.9370
1687 1422309936 36.4757
1688 1422311157 35.9136
1689 1422312377 35.7272
1690 1422313598 36.1663
1691 1422314819 36.2053
1692 1422316040 35.5057
1693 1422317260 35.9902
1694 1422318481 36.1434
1695 1422319702 35.9225
1696 1422320922 35.7652
1697 1422322143 35.8806
1698 1422323364 35.5505
1699 1422324584 35.1076
1700 1422325805 34.8131
1701 1422327026 35.4480
1702 1422328247 35.3263
1703 1422329467 35.1243
1704 1422330688 35.3396
1705 1422331909 35.0020
1706 1422333129 35.1616
1707 1422334350 34.7381
1708 1422335571 34.3850
1709 1422336791 34.6708
1710 1422338012 34.9152
1711 1422339233 34.6471
1712 1422340454 35.0803
1713 1422341674 35.3803
1714 1422342895 34.7662
1715 1422344116 34.0103
1716 1422345336 35.0037
1717 1422346557 34.5590
1718 1422347778 34.1739
1719 1422348999 34.2024
1720 1422350219 33.8108
1721 1422351440 33.8523
1722 1422352661 34.3157
1723 1422353881 34.0749
1724 1422355102 33.8617
1725 1422356323 33.6723
1726 1422357543 33.8211
1727 1422358764 33.9141
1728 1422359985 33.6851
1729 1422361206 33.7037
1730 1422362426 33.5265
1731 1422363647 33.3489
1732 1422364868 33.4641
1733 1422366088 33.6561
1734 1422367309 33.4798
1735 1422368530 33.3101
1736 1422369750 33.1823
1737 1422370971 33.3281
1738 1422372192 32.7871
1739 1422373413 33.0614
1740 1422374633 32.6282
1741 1422375854 32.6053
1742 1422377075 32.1045
1743 1422378295 32.5053
1744 1422379516 32.7504
1745 1422380737 32.3856
1746 1422381958 32.1486
1747 1422383178 32.1762
1748 1422384399 31.8146
1749 1422385620 32.0359
1750 1422386840 32.3894
1751 1422388061 31.9892
1752 1422389282 32.0824
1753 1422390502 32.1923
1754 1422391723 32.1497
1755 1422392944 31.9954
1756 1422394165 31.6822
1757 1422395385 31.4267
1758 1422396606 31.6787
1759 1422397827 31.3360
1760 1422399047 30.9726
1761 1422400268 31.1245
1762 1422401489 31.1192
1763 1422402709 31.3106
1764 1422403930 31.0848
1765 1422405151 31.4985
1766 1422406372 31.0880
1767 1422407592 30.6977
1768 1422408813 30.4221
1769 1422410034 30.2585
1770 1422411254 30.3459
1771 1422412475 30.1685
1772 1422413696 30.0145
1773 1422414916 30.3675
1774 1422416137 30.2780
1775 1422417358 29.7011
1776 1422418579 29.9440
1777 1422419799 29.7812
1778 1422421020 29.9317
1779 1422422241 29.7394
1780 1422423461 30.0831
1781 1422424682 29.5900
1782 1422425903 29.2605
1783 1422427124 29.1038
1784 1422428344 29.1499
1785 1422429565 28.8328
1786 1422430786 28.9974
1787 1422432006 28.8265
1788 1422433227 28.9219
1789 1422434448 28.5190
1790 1422435668 28.4617
1791 1422436889 28.5650
1792 1422438110 28.3591
1793 1422439331 28.8462
1794 1422440551 28.6654
1795 1422441772 28.4411
1796 1422442993 28.2000
1797 1422444213 27.9695
1798 1422445434 28.1111
1799 1422446655 27.6308
1800 1422447875 27.8470
1801 1422449096 27.6028
1802 1422450317 27.1941
1803 1422451538 27.4468
1804 1422452758 27.3845
1805 1422453979 27.3698
1806 1422455200 27.0171
1807 1422456420 27.2408
1808 1422457641 26.7423
1809 1422458862 26.9347
1810 1422460083 26.5025
1811 1422461303 26.3003
1812 1422462524 26.3482
1813 1422463745 26.4800
1814 1422464965 26.3787
1815 1422466186 26.3646
1816 1422467407 25.9122
1817 1422468627 25.7634
1818 1422469848 25.8244
1819 1422471069 25.9320
1820 1422472290 25.4760
1821 1422473510 25.3116
1822 1422474731 25.4418
1823 1422475952 24.9925
1824 1422477172 24.7640
1825 1422478393 25.0685
1826 1422479614 24.7598
1827 1422480834 25.0170
1828 1422482055 24.7136
1829 1422483276 24.8591
1830 1422484497 24.6318
1831 1422485717 24.7674
1832 1422486938 24.5169
1833 1422488159 24.1830
1834 1422489379 24.5711
1835 1422490600 23.9777
1836 1422491821 23.9862
1837 1422493041 23.8356
1838 1422494262 23.5798
1839 1422495483 23.6157
1840 1422496704 23.4919
1841 1422497924 23.7453
1842 1422499145 23.5305
1843 1422500366 22.9182
1844 1422501586 22.9593
1845 1422502807 22.8380
1846 1422504028 22.6948
1847 1422505249 22.4769
1848 1422506469 22.1653
1849 1422507690 22.5324
1850 1422508911 22.3890
1851 1422510131 22.1000
1852 1422511352 22.0627
1853 1422512573 21.8637
1854 1422513793 21.9209
1855 1422515014 21.9169
1856 1422516235 21.7443
1857 1422517456 21.6950
1858 1422518676 21.3114
1859 1422519897 21.2822
1860 1422521118 21.1593
1861 1422522338 21.2747
1862 1422523559 20.9543
1863 1422524780 20.7043
1864 1422526000 20.8553
1865 1422527221 20.6324
1866 1422528442 20.5779
1867 1422529663 20.4146
1868 1422530883 20.3615
1869 1422532104 20.3796
1870 1422533325 20.1130
1871 1422534545 20.1705
1872 1422535766 19.8637
1873 1422536987 19.7111
1874 1422538208 19.6181
1875 1422539428 19.4819
1876 1422540649 19.2142
1877 1422541870 19.4576
1878 1422543090 19.0263
1879 1422544311 18.9671
1880 1422545532 18.9326
1881 1422546752 19.0524
1882 1422547973 18.7379
1883 1422549194 18.9579
1884 1422550415 18.7516
1885 1422551635 18.6172
1886 1422552856 18.4457
1887 1422554077 18.4391
1888 1422555297 17.9156
1889 1422556518 17.8719
1890 1422557739 18.0708
1891 1422558959 17.9083
1892 1422560180 17.5061
1893 1422561401 17.4188
1894 1422562622 17.5473
1895 1422563842 17.5260
1896 1422565063 17.3132
1897 1422566284 17.1469
1898 1422567504 16.9754
1899 1422568725 16.8818
1900 1422569946 17.0963
1901 1422571166 16.7283
1902 1422572387 16.5207
1903 1422573608 16.5451
1904 1422574829 16.3980
1905 1422576049 16.1696
1906 1422577270 16.3227
1907 1422578491 16.1109
1908 1422579711 16.0578
1909 1422580932 15.9553
1910 1422582153 15.7692
1911 1422583374 15.6368
1912 1422584594 15.6938
1913 1422585815 15.6536
1914 1422587036 15.5557
1915 1422588256 15.5273
1916 1422589477 15.3433
1917 1422590698 15.2502
1918 1422591918 15.2118
1919 1422593139 14.9699
1920 1422594360 14.9151
1921 1422595581 14.8619
1922 1422596801 14.9526
1923 1422598022 14.6313
1924 1422599243 14.4629
1925 1422600463 14.4854
1926 1422601684 14.2260
1927 1422602905 14.3550
1928 1422604125 14.0668
1929 1422605346 14.3023
1930 1422606567 13.9430
1931 1422607788 13.8784
1932 1422609008 13.7368
1933 1422610229 13.6505
1934 1422611450 13.5148
1935 1422612670 13.5052
1936 1422613891 13.4117
1937 1422615112 13.1634
1938 1422616333 13.1869
1939 1422617553 13.1986
1940 1422618774 13.1494
1941 1422619995 12.8853
1942 1422621215 12.8489
1943 1422622436 12.8894
1944 1422623657 12.6041
1945 1422624877 12.6584
1946 1422626098 12.6131
1947 1422627319 12.4619
1948 1422628540 12.3253
1949 1422629760 12.2908
1950 1422630981 12.3207
1951 1422632202 12.1836
1952 1422633422 11.9444
1953 1422634643 11.9800
1954 1422635864 11.7731
1955 1422637084 11.8766
1956 1422638305 11.7332
1957 1422639526 11.7241
1958 1422640747 11.7599
1959 1422641967 11.5739
1960 1422643188 11.4696
1961 1422644409 11.2453
1962 1422645629 11.2371
1963 1422646850 11.2664
1964 1422648071 10.9758
1965 1422649291 11.0536
1966 1422650512 10.9269
1967 1422651733 10.8085
1968 1422652954 10.9066
1969 1422654174 10.7407
1970 1422655395 10.7898
1971 1422656616 10.6122
1972 1422657836 10.6510
1973 1422659057 10.5054
1974 1422660278 10.4716
1975 1422661499 10.3766
1976 1422662719 10.2236
1977 1422663940 10.2834
1978 1422665161 10.2032
1979 1422666381 10.3175
1980 1422667602 10.1881
1981 1422668823 10.1519
1982 1422670043 9.9810
1983 1422671264 10.0326
1984 1422672485 9.7878
1985 1422673706 9.7457
1986 1422674926 9.8086
1987 1422676147 9.8062
1988 1422677368 9.7400
1989 1422678588 9.6201
1990 1422679809 9.4585
1991 1422681030 9.4283
1992 1422682250 9.3876
1993 1422683471 9.3692
1994 1422684692 9.3640
1995 1422685913 9.3772
1996 1422687133 9.2564
1997 1422688354 9.1357
1998 1422689575 9.0460
1999 1422690795 9.0600
2000 1422692016 9.0196
2001 1422693237 8.9721
2002 1422694458 8.9195
2003 1422695678 8.9755
2004 1422696899 8.8124
2005 1422698120 8.8265
2006 1422699340 8.7991
2007 1422700561 9.1206
2008 1422701782 8.7291
2009 1422703002 8.6657
2010 1422704223 8.6478
2011 1422705444 8.6459
2012 1422706665 8.5883
2013 1422707885 8.5523
2014 1422709106 8.5674
2015 1422710327 8.4474
2016 1422711547 8.4029
2017 1422712768 8.3575
2018 1422713989 8.2875
2019 1422715209 8.3816
2020 1422716430 8.3051
2021 1422717651 8.2182
2022 1422718872 8.2329
2023 1422720092 8.2219
2024 1422721313 8.1037
2025 1422722534 8.1088
2026 1422723754 8.1787
2027 1422724975 8.1295
2028 1422726196 8.1052
2029 1422727416 8.0724
2030 1422728637 7.9340
2031 1422729858 8.0728
2032 1422731079 8.1189
2033 1422732299 8.1088
2034 1422733520 8.1110
2035 1422734741 8.0210
2036 1422735961 7.9192
2037 1422737182 7.9658
2038 1422738403 7.9651
2039 1422739624 8.0017
2040 1422740844 8.0177
2041 1422742065 7.8652
2042 1422743286 7.9864
2043 1422744506 7.8416
2044 1422745727 7.8449
2045 1422746948 8.0028
2046 1422748168 7.9268
2047 1422749389 8.3318
