# File: 20-05-31T223649.ref
# NOTEA     = None Attached.  RTLSDR Dongle Test
# NOTEB     = Spectral Integration
# OBSERVER  = Science Aficionado
# DEVICE    = rtlsdr=0
# DATADIR   = ../data/
# SITE      = None Attached.  RTLSDR Dongle Test
# CITY      = Green Bank
# REGION    = West Virginia
# COUNTRY   = US
# TELTYPE   = Bubble Wrap  Horn
# FRAME     = TOPO
# GAIN1     = 49.0
# GAIN2     = 11.0
# GAIN3     = 11.0
# GAIN4     = 0.0
# Count     = 10000
# CenterFreq= 1400000000.0
# Bandwidth = 2500000.0
# Duration  = 41.94979
# DeltaX    = 5859.375
# TSYS      = 200.0
# TRX       = 100.0
# TRMS      = 2.0
# TINT      = 1.0
# KPERC     = 100.0
# GAINFACT  = 1.0
# BUNIT     = Counts
# NCHAN     = 1024
# NSPEC     = 1
# NTIME     = 0
# NSAMPLES  = 0
# EPEAK     = 4.10875183718
# ERMS      = 0.995973393526
# EMJD      = 58568.808999981004 
# REFCHAN   = 512.0
# REFSAMPL  = 256.0
# NAVE      = 100
# NMEDIAN   = 1024
# Fft_rate  = 5000
# UTC       = 2020-05-31 22:36:49.685272
# SECONDS   =       0.0000000000 
# LST       = 09:56:59.050
# AZ        = 180.0
# EL        = 90.0
# TELLON    = -79:50:22.920
# TELLAT    = +38:25:59.160
# RA        = 09:54:32.750
# DEC       = +38:37:24.100
# GALLON    = 184:04:39.10
# GALLAT    = +51:31:40.00
# ALT_SUN   = +21:11:31.7
# AZ_SUN    = +281:58:25.4
# ETAA      = 0.8
# ETAB      = 0.99
# POLANGLE  = 0.0
# TELSIZEAM = 1.0
# TELSIZEBM = 1.0
# AST_VERS  = 05.01
0000 1398751220 7.0091
0001 1398753662 6.9450
0002 1398756103 7.0481
0003 1398758544 7.1090
0004 1398760986 7.1156
0005 1398763427 7.1254
0006 1398765869 6.9695
0007 1398768310 6.9193
0008 1398770751 6.9486
0009 1398773193 6.9894
0010 1398775634 7.1067
0011 1398778076 7.0736
0012 1398780517 7.0589
0013 1398782958 7.1491
0014 1398785400 7.2327
0015 1398787841 7.8148
0016 1398790283 7.2691
0017 1398792724 7.2456
0018 1398795166 7.3216
0019 1398797607 8.4810
0020 1398800048 8.4154
0021 1398802490 7.6159
0022 1398804931 7.5213
0023 1398807373 7.4928
0024 1398809814 7.5403
0025 1398812255 7.6033
0026 1398814697 7.9176
0027 1398817138 7.7958
0028 1398819580 7.9265
0029 1398822021 8.0544
0030 1398824462 8.1035
0031 1398826904 8.1928
0032 1398829345 8.2021
0033 1398831787 8.2742
0034 1398834228 8.5267
0035 1398836669 8.7089
0036 1398839111 8.5304
0037 1398841552 8.7543
0038 1398843994 8.7949
0039 1398846435 8.8619
0040 1398848876 8.9146
0041 1398851318 9.2130
0042 1398853759 9.3000
0043 1398856201 9.4672
0044 1398858642 9.5803
0045 1398861083 9.5180
0046 1398863525 9.6412
0047 1398865966 10.0393
0048 1398868408 10.2695
0049 1398870849 9.9917
0050 1398873291 10.2298
0051 1398875732 10.3719
0052 1398878173 10.5060
0053 1398880615 10.6329
0054 1398883056 10.7523
0055 1398885498 11.2211
0056 1398887939 12.1225
0057 1398890380 11.3006
0058 1398892822 11.3356
0059 1398895263 11.8462
0060 1398897705 12.3569
0061 1398900146 12.0392
0062 1398902587 11.9403
0063 1398905029 11.9597
0064 1398907470 12.0982
0065 1398909912 12.5163
0066 1398912353 12.7940
0067 1398914794 13.2242
0068 1398917236 12.8337
0069 1398919677 13.0705
0070 1398922119 13.1389
0071 1398924560 13.3478
0072 1398927001 13.8295
0073 1398929443 14.0842
0074 1398931884 14.2480
0075 1398934326 14.0052
0076 1398936767 14.0930
0077 1398939208 14.2869
0078 1398941650 14.6491
0079 1398944091 14.7629
0080 1398946533 14.9507
0081 1398948974 15.0634
0082 1398951416 15.1856
0083 1398953857 15.3490
0084 1398956298 16.1100
0085 1398958740 16.2545
0086 1398961181 16.0490
0087 1398963623 16.1735
0088 1398966064 16.3059
0089 1398968505 16.4894
0090 1398970947 16.8004
0091 1398973388 17.2144
0092 1398975830 16.8450
0093 1398978271 17.1472
0094 1398980712 17.4972
0095 1398983154 17.5261
0096 1398985595 18.7269
0097 1398988037 21.4703
0098 1398990478 18.5179
0099 1398992919 18.1553
0100 1398995361 18.4468
0101 1398997802 18.4000
0102 1399000244 18.8297
0103 1399002685 19.1151
0104 1399005126 19.2784
0105 1399007568 20.0421
0106 1399010009 20.8492
0107 1399012451 20.5336
0108 1399014892 20.3667
0109 1399017333 21.0638
0110 1399019775 20.8151
0111 1399022216 20.6903
0112 1399024658 21.4683
0113 1399027099 20.9740
0114 1399029541 21.0590
0115 1399031982 21.9037
0116 1399034423 21.5263
0117 1399036865 21.4978
0118 1399039306 21.6818
0119 1399041748 21.8124
0120 1399044189 21.9323
0121 1399046630 21.9424
0122 1399049072 22.2532
0123 1399051513 22.5603
0124 1399053955 23.2546
0125 1399056396 23.9161
0126 1399058837 22.8773
0127 1399061279 23.3249
0128 1399063720 23.1948
0129 1399066162 23.0957
0130 1399068603 23.7356
0131 1399071044 23.9461
0132 1399073486 23.9642
0133 1399075927 24.0753
0134 1399078369 24.8747
0135 1399080810 24.6490
0136 1399083251 24.7073
0137 1399085693 26.1022
0138 1399088134 27.0259
0139 1399090576 25.1597
0140 1399093017 25.8216
0141 1399095458 26.3753
0142 1399097900 25.4583
0143 1399100341 25.5818
0144 1399102783 25.8364
0145 1399105224 25.7910
0146 1399107666 26.1649
0147 1399110107 26.2944
0148 1399112548 26.3928
0149 1399114990 26.6009
0150 1399117431 27.3602
0151 1399119873 27.4513
0152 1399122314 27.2226
0153 1399124755 26.9772
0154 1399127197 26.9063
0155 1399129638 27.3028
0156 1399132080 27.7561
0157 1399134521 27.7777
0158 1399136962 28.0359
0159 1399139404 28.5474
0160 1399141845 28.3357
0161 1399144287 28.2008
0162 1399146728 28.2772
0163 1399149169 28.6720
0164 1399151611 28.8438
0165 1399154052 28.7770
0166 1399156494 28.5587
0167 1399158935 28.6360
0168 1399161376 28.9059
0169 1399163818 28.9593
0170 1399166259 29.0104
0171 1399168701 29.2038
0172 1399171142 29.2968
0173 1399173583 29.4727
0174 1399176025 29.5817
0175 1399178466 29.1237
0176 1399180908 29.5858
0177 1399183349 29.9146
0178 1399185791 30.9267
0179 1399188232 32.1099
0180 1399190673 31.1811
0181 1399193115 30.2927
0182 1399195556 29.5981
0183 1399197998 30.9255
0184 1399200439 31.5323
0185 1399202880 30.2245
0186 1399205322 30.8791
0187 1399207763 31.5949
0188 1399210205 30.7713
0189 1399212646 31.0229
0190 1399215087 31.1531
0191 1399217529 30.5354
0192 1399219970 31.0127
0193 1399222412 31.0865
0194 1399224853 30.8160
0195 1399227294 30.7268
0196 1399229736 31.1284
0197 1399232177 31.5518
0198 1399234619 31.4762
0199 1399237060 31.3400
0200 1399239501 30.9744
0201 1399241943 31.6376
0202 1399244384 32.4785
0203 1399246826 31.7674
0204 1399249267 31.3654
0205 1399251708 31.4205
0206 1399254150 31.7749
0207 1399256591 31.9729
0208 1399259033 32.0663
0209 1399261474 31.5964
0210 1399263916 31.4292
0211 1399266357 31.7920
0212 1399268798 31.5034
0213 1399271240 31.8717
0214 1399273681 32.9977
0215 1399276123 33.0307
0216 1399278564 31.7425
0217 1399281005 31.5662
0218 1399283447 31.9426
0219 1399285888 35.1204
0220 1399288330 38.3071
0221 1399290771 32.1897
0222 1399293212 32.2644
0223 1399295654 32.4949
0224 1399298095 32.3035
0225 1399300537 32.0262
0226 1399302978 32.2074
0227 1399305419 33.2641
0228 1399307861 33.5996
0229 1399310302 32.3163
0230 1399312744 32.8335
0231 1399315185 32.3186
0232 1399317626 32.0493
0233 1399320068 32.5083
0234 1399322509 32.3358
0235 1399324951 32.1056
0236 1399327392 32.3687
0237 1399329833 32.8879
0238 1399332275 33.8381
0239 1399334716 32.3396
0240 1399337158 33.5271
0241 1399339599 33.2989
0242 1399342041 32.2026
0243 1399344482 32.2921
0244 1399346923 32.2808
0245 1399349365 32.0482
0246 1399351806 32.3692
0247 1399354248 32.2846
0248 1399356689 32.3590
0249 1399359130 32.2094
0250 1399361572 32.3397
0251 1399364013 32.3574
0252 1399366455 32.5085
0253 1399368896 33.9462
0254 1399371337 32.5992
0255 1399373779 32.4735
0256 1399376220 31.8721
0257 1399378662 31.9092
0258 1399381103 32.5075
0259 1399383544 32.1360
0260 1399385986 32.3734
0261 1399388427 33.1834
0262 1399390869 32.6351
0263 1399393310 32.2032
0264 1399395751 32.1773
0265 1399398193 31.8885
0266 1399400634 32.7356
0267 1399403076 32.3277
0268 1399405517 31.8901
0269 1399407958 31.6379
0270 1399410400 31.9153
0271 1399412841 31.9377
0272 1399415283 31.7127
0273 1399417724 31.9867
0274 1399420166 32.1854
0275 1399422607 31.8313
0276 1399425048 31.6467
0277 1399427490 31.9639
0278 1399429931 31.9117
0279 1399432373 32.3591
0280 1399434814 31.8373
0281 1399437255 31.4548
0282 1399439697 31.8213
0283 1399442138 33.0751
0284 1399444580 31.9053
0285 1399447021 31.5241
0286 1399449462 31.8726
0287 1399451904 32.8286
0288 1399454345 31.9667
0289 1399456787 32.4576
0290 1399459228 32.2779
0291 1399461669 31.5913
0292 1399464111 31.9056
0293 1399466552 31.6491
0294 1399468994 31.6496
0295 1399471435 31.8354
0296 1399473876 32.1672
0297 1399476318 31.5309
0298 1399478759 31.5937
0299 1399481201 31.6975
0300 1399483642 31.6621
0301 1399486083 34.0386
0302 1399488525 34.8511
0303 1399490966 31.4166
0304 1399493408 31.7507
0305 1399495849 32.2406
0306 1399498291 31.6389
0307 1399500732 32.4517
0308 1399503173 32.0770
0309 1399505615 31.7603
0310 1399508056 31.5150
0311 1399510498 32.0669
0312 1399512939 31.7956
0313 1399515380 31.6258
0314 1399517822 32.2844
0315 1399520263 32.1148
0316 1399522705 31.6598
0317 1399525146 32.0185
0318 1399527587 31.8927
0319 1399530029 31.7278
0320 1399532470 32.5346
0321 1399534912 31.8309
0322 1399537353 31.7926
0323 1399539794 32.1167
0324 1399542236 31.7594
0325 1399544677 31.1921
0326 1399547119 31.5584
0327 1399549560 32.0980
0328 1399552001 31.8397
0329 1399554443 32.6006
0330 1399556884 33.3876
0331 1399559326 32.4154
0332 1399561767 32.6147
0333 1399564208 33.5455
0334 1399566650 32.1955
0335 1399569091 31.6711
0336 1399571533 32.4073
0337 1399573974 31.9471
0338 1399576416 31.9052
0339 1399578857 32.4408
0340 1399581298 32.2016
0341 1399583740 32.2534
0342 1399586181 36.5363
0343 1399588623 37.5558
0344 1399591064 32.7657
0345 1399593505 32.6005
0346 1399595947 32.3781
0347 1399598388 32.3245
0348 1399600830 32.7468
0349 1399603271 32.9093
0350 1399605712 32.2171
0351 1399608154 32.5971
0352 1399610595 32.6539
0353 1399613037 32.8211
0354 1399615478 33.0103
0355 1399617919 33.2487
0356 1399620361 33.3387
0357 1399622802 33.8981
0358 1399625244 33.8912
0359 1399627685 32.7430
0360 1399630126 33.0811
0361 1399632568 34.2088
0362 1399635009 33.2342
0363 1399637451 33.3569
0364 1399639892 33.0833
0365 1399642333 32.9460
0366 1399644775 32.9886
0367 1399647216 33.5992
0368 1399649658 33.1152
0369 1399652099 34.4864
0370 1399654541 33.8862
0371 1399656982 32.8914
0372 1399659423 33.0343
0373 1399661865 33.0442
0374 1399664306 32.8544
0375 1399666748 33.2965
0376 1399669189 33.6722
0377 1399671630 33.7362
0378 1399674072 33.8204
0379 1399676513 35.4585
0380 1399678955 34.7812
0381 1399681396 34.4605
0382 1399683837 36.4641
0383 1399686279 35.1423
0384 1399688720 33.8924
0385 1399691162 34.0471
0386 1399693603 34.5347
0387 1399696044 33.9320
0388 1399698486 34.1506
0389 1399700927 34.7601
0390 1399703369 33.7733
0391 1399705810 34.0864
0392 1399708251 34.3171
0393 1399710693 34.4352
0394 1399713134 35.3695
0395 1399715576 35.7260
0396 1399718017 34.7563
0397 1399720458 35.3787
0398 1399722900 35.1401
0399 1399725341 35.0380
0400 1399727783 35.0424
0401 1399730224 34.8398
0402 1399732666 34.7333
0403 1399735107 34.7387
0404 1399737548 35.0725
0405 1399739990 34.6948
0406 1399742431 34.9061
0407 1399744873 36.7936
0408 1399747314 37.1835
0409 1399749755 39.3084
0410 1399752197 37.4633
0411 1399754638 35.7734
0412 1399757080 35.9169
0413 1399759521 35.7512
0414 1399761962 35.2206
0415 1399764404 35.7371
0416 1399766845 35.8867
0417 1399769287 36.0248
0418 1399771728 35.8003
0419 1399774169 36.2757
0420 1399776611 37.1531
0421 1399779052 36.5269
0422 1399781494 36.3748
0423 1399783935 36.0530
0424 1399786376 40.5810
0425 1399788818 40.9810
0426 1399791259 37.3964
0427 1399793701 38.7375
0428 1399796142 36.9086
0429 1399798583 36.9065
0430 1399801025 36.4168
0431 1399803466 36.9781
0432 1399805908 37.5219
0433 1399808349 38.5853
0434 1399810791 38.0382
0435 1399813232 37.0861
0436 1399815673 36.7352
0437 1399818115 37.3689
0438 1399820556 37.5135
0439 1399822998 37.4141
0440 1399825439 37.6816
0441 1399827880 37.6741
0442 1399830322 38.1002
0443 1399832763 38.7913
0444 1399835205 37.4491
0445 1399837646 37.0476
0446 1399840087 38.4777
0447 1399842529 38.5889
0448 1399844970 39.1747
0449 1399847412 38.7251
0450 1399849853 37.7308
0451 1399852294 38.1477
0452 1399854736 38.4922
0453 1399857177 38.8855
0454 1399859619 39.0800
0455 1399862060 38.5022
0456 1399864501 38.5602
0457 1399866943 39.6660
0458 1399869384 39.0580
0459 1399871826 39.5634
0460 1399874267 39.3753
0461 1399876708 38.4126
0462 1399879150 38.2081
0463 1399881591 38.6896
0464 1399884033 38.7772
0465 1399886474 42.3845
0466 1399888916 42.2863
0467 1399891357 38.8242
0468 1399893798 39.0704
0469 1399896240 44.3095
0470 1399898681 44.8075
0471 1399901123 39.1399
0472 1399903564 39.9931
0473 1399906005 39.5273
0474 1399908447 39.2553
0475 1399910888 39.4455
0476 1399913330 39.8715
0477 1399915771 39.3054
0478 1399918212 39.4826
0479 1399920654 39.5292
0480 1399923095 39.6286
0481 1399925537 39.5394
0482 1399927978 40.0777
0483 1399930419 40.8657
0484 1399932861 41.9171
0485 1399935302 43.2215
0486 1399937744 40.8764
0487 1399940185 40.1245
0488 1399942626 40.1256
0489 1399945068 40.1785
0490 1399947509 40.2059
0491 1399949951 40.8031
0492 1399952392 40.9181
0493 1399954833 40.7763
0494 1399957275 40.3635
0495 1399959716 40.7087
0496 1399962158 40.4935
0497 1399964599 41.0873
0498 1399967041 41.3722
0499 1399969482 40.6863
0500 1399971923 41.4154
0501 1399974365 42.9624
0502 1399976806 42.5661
0503 1399979248 44.7309
0504 1399981689 67.5016
0505 1399984130 54.6500
0506 1399986572 52.9239
0507 1399989013 63.9718
0508 1399991455 49.9448
0509 1399993896 46.1463
0510 1399996337 119.8532
0511 1399998779 359.9752
0512 1400001220 96.3917
0513 1400003662 49.6338
0514 1400006103 45.6126
0515 1400008544 43.2196
0516 1400010986 42.6613
0517 1400013427 59.2635
0518 1400015869 67.1740
0519 1400018310 42.7308
0520 1400020751 44.2879
0521 1400023193 46.7705
0522 1400025634 44.1557
0523 1400028076 41.9037
0524 1400030517 41.3671
0525 1400032958 41.2802
0526 1400035400 40.7707
0527 1400037841 40.8023
0528 1400040283 41.7555
0529 1400042724 41.4928
0530 1400045166 39.8275
0531 1400047607 41.3257
0532 1400050048 40.9042
0533 1400052490 40.0651
0534 1400054931 40.6174
0535 1400057373 41.1123
0536 1400059814 40.3646
0537 1400062255 39.9285
0538 1400064697 39.9897
0539 1400067138 39.4782
0540 1400069580 39.6674
0541 1400072021 39.8084
0542 1400074462 40.0590
0543 1400076904 39.9020
0544 1400079345 40.0706
0545 1400081787 39.6443
0546 1400084228 40.8232
0547 1400086669 49.4952
0548 1400089111 44.1949
0549 1400091552 39.9043
0550 1400093994 39.9119
0551 1400096435 39.7140
0552 1400098876 39.3927
0553 1400101318 39.1024
0554 1400103759 39.6284
0555 1400106201 39.3906
0556 1400108642 40.4608
0557 1400111083 40.7514
0558 1400113525 39.9134
0559 1400115966 39.4967
0560 1400118408 39.6484
0561 1400120849 39.0211
0562 1400123291 39.1856
0563 1400125732 38.9665
0564 1400128173 38.7572
0565 1400130615 39.0839
0566 1400133056 39.9130
0567 1400135498 38.7324
0568 1400137939 38.4018
0569 1400140380 38.5255
0570 1400142822 38.4230
0571 1400145263 38.4650
0572 1400147705 38.6334
0573 1400150146 38.4848
0574 1400152587 38.2663
0575 1400155029 39.8718
0576 1400157470 39.0902
0577 1400159912 38.1159
0578 1400162353 39.0434
0579 1400164794 38.9726
0580 1400167236 39.3093
0581 1400169677 38.6843
0582 1400172119 38.5977
0583 1400174560 38.0261
0584 1400177001 37.9835
0585 1400179443 37.5522
0586 1400181884 37.6301
0587 1400184326 38.3325
0588 1400186767 39.8581
0589 1400189208 38.6264
0590 1400191650 37.6590
0591 1400194091 37.6974
0592 1400196533 37.5621
0593 1400198974 37.5980
0594 1400201416 37.3029
0595 1400203857 36.9766
0596 1400206298 37.0115
0597 1400208740 37.5974
0598 1400211181 37.5699
0599 1400213623 37.0435
0600 1400216064 37.1465
0601 1400218505 36.8153
0602 1400220947 36.9016
0603 1400223388 37.0113
0604 1400225830 36.3150
0605 1400228271 36.0068
0606 1400230712 36.6978
0607 1400233154 36.7960
0608 1400235595 36.4144
0609 1400238037 36.4316
0610 1400240478 36.6341
0611 1400242919 36.3124
0612 1400245361 36.2188
0613 1400247802 36.1240
0614 1400250244 35.9249
0615 1400252685 36.3887
0616 1400255126 36.4533
0617 1400257568 36.7156
0618 1400260009 38.5301
0619 1400262451 35.8185
0620 1400264892 35.5439
0621 1400267333 35.6554
0622 1400269775 35.3957
0623 1400272216 35.7637
0624 1400274658 35.4099
0625 1400277099 36.1085
0626 1400279541 35.7195
0627 1400281982 35.7859
0628 1400284423 36.5301
0629 1400286865 38.3266
0630 1400289306 36.5052
0631 1400291748 36.3397
0632 1400294189 35.2707
0633 1400296630 34.8488
0634 1400299072 35.0513
0635 1400301513 35.3935
0636 1400303955 35.1366
0637 1400306396 34.9578
0638 1400308837 34.5076
0639 1400311279 34.6820
0640 1400313720 34.4629
0641 1400316162 34.5687
0642 1400318603 34.5093
0643 1400321044 35.0746
0644 1400323486 34.8845
0645 1400325927 34.2634
0646 1400328369 34.3027
0647 1400330810 34.4660
0648 1400333251 34.3746
0649 1400335693 34.1578
0650 1400338134 34.2045
0651 1400340576 34.2838
0652 1400343017 34.8749
0653 1400345458 35.3181
0654 1400347900 34.1515
0655 1400350341 33.9690
0656 1400352783 34.5374
0657 1400355224 34.6252
0658 1400357666 34.7336
0659 1400360107 33.9060
0660 1400362548 33.7746
0661 1400364990 33.7840
0662 1400367431 33.4938
0663 1400369873 33.7064
0664 1400372314 33.9593
0665 1400374755 34.0771
0666 1400377197 34.0041
0667 1400379638 34.2595
0668 1400382080 33.4825
0669 1400384521 34.6444
0670 1400386962 40.6581
0671 1400389404 36.3516
0672 1400391845 33.7828
0673 1400394287 33.3998
0674 1400396728 33.5757
0675 1400399169 34.0158
0676 1400401611 33.5140
0677 1400404052 33.4971
0678 1400406494 33.6919
0679 1400408935 33.4785
0680 1400411376 33.7845
0681 1400413818 34.8039
0682 1400416259 33.5991
0683 1400418701 32.9643
0684 1400421142 33.2828
0685 1400423583 33.2425
0686 1400426025 33.0503
0687 1400428466 33.3833
0688 1400430908 33.4954
0689 1400433349 33.8151
0690 1400435791 32.8004
0691 1400438232 32.5070
0692 1400440673 32.9845
0693 1400443115 33.3272
0694 1400445556 33.0718
0695 1400447998 32.9985
0696 1400450439 33.1104
0697 1400452880 33.4561
0698 1400455322 33.3085
0699 1400457763 33.4661
0700 1400460205 32.8693
0701 1400462646 33.1816
0702 1400465087 33.8342
0703 1400467529 33.9774
0704 1400469970 33.0834
0705 1400472412 33.3216
0706 1400474853 34.3228
0707 1400477294 32.9400
0708 1400479736 33.0665
0709 1400482177 33.0231
0710 1400484619 32.8969
0711 1400487060 33.0336
0712 1400489501 33.3209
0713 1400491943 33.1695
0714 1400494384 35.4616
0715 1400496826 39.8148
0716 1400499267 35.5157
0717 1400501708 33.1664
0718 1400504150 33.2822
0719 1400506591 33.3063
0720 1400509033 33.4206
0721 1400511474 33.2880
0722 1400513916 33.1364
0723 1400516357 33.1243
0724 1400518798 33.8509
0725 1400521240 33.7966
0726 1400523681 33.7474
0727 1400526123 34.2095
0728 1400528564 33.6754
0729 1400531005 33.2318
0730 1400533447 33.9860
0731 1400535888 34.2147
0732 1400538330 33.2650
0733 1400540771 33.6715
0734 1400543212 33.7986
0735 1400545654 33.2108
0736 1400548095 33.3650
0737 1400550537 33.8505
0738 1400552978 33.5158
0739 1400555419 33.3816
0740 1400557861 34.1791
0741 1400560302 33.5255
0742 1400562744 33.7759
0743 1400565185 33.9048
0744 1400567626 33.6969
0745 1400570068 33.9364
0746 1400572509 33.7573
0747 1400574951 33.3003
0748 1400577392 33.4866
0749 1400579833 33.5797
0750 1400582275 33.9703
0751 1400584716 34.1200
0752 1400587158 41.1793
0753 1400589599 35.7232
0754 1400592041 33.2835
0755 1400594482 34.7310
0756 1400596923 35.4198
0757 1400599365 33.7517
0758 1400601806 33.6365
0759 1400604248 33.8232
0760 1400606689 33.6927
0761 1400609130 33.8909
0762 1400611572 34.2257
0763 1400614013 33.8061
0764 1400616455 34.2794
0765 1400618896 34.7563
0766 1400621337 34.1533
0767 1400623779 33.7558
0768 1400626220 33.8998
0769 1400628662 33.8403
0770 1400631103 34.7358
0771 1400633544 34.8942
0772 1400635986 34.1124
0773 1400638427 34.3385
0774 1400640869 34.7053
0775 1400643310 34.1681
0776 1400645751 34.1448
0777 1400648193 34.6203
0778 1400650634 33.7420
0779 1400653076 34.3213
0780 1400655517 35.1182
0781 1400657958 34.8507
0782 1400660400 34.0965
0783 1400662841 34.2123
0784 1400665283 34.5136
0785 1400667724 33.9859
0786 1400670166 34.5310
0787 1400672607 37.5124
0788 1400675048 39.6002
0789 1400677490 34.6368
0790 1400679931 34.0420
0791 1400682373 33.9713
0792 1400684814 34.7263
0793 1400687255 37.3519
0794 1400689697 34.7331
0795 1400692138 34.8103
0796 1400694580 37.7230
0797 1400697021 36.1824
0798 1400699462 34.2131
0799 1400701904 34.4014
0800 1400704345 34.0028
0801 1400706787 34.1662
0802 1400709228 35.0998
0803 1400711669 34.2309
0804 1400714111 34.1302
0805 1400716552 35.5942
0806 1400718994 34.6308
0807 1400721435 34.5885
0808 1400723876 34.3973
0809 1400726318 34.4837
0810 1400728759 34.1960
0811 1400731201 34.5135
0812 1400733642 34.8428
0813 1400736083 33.7742
0814 1400738525 34.0571
0815 1400740966 34.2545
0816 1400743408 33.9303
0817 1400745849 34.2715
0818 1400748291 34.5624
0819 1400750732 34.0959
0820 1400753173 33.7093
0821 1400755615 33.9348
0822 1400758056 33.4971
0823 1400760498 33.3912
0824 1400762939 33.4211
0825 1400765380 33.9290
0826 1400767822 34.7003
0827 1400770263 34.4869
0828 1400772705 33.6576
0829 1400775146 33.7979
0830 1400777587 35.9026
0831 1400780029 34.3011
0832 1400782470 33.2383
0833 1400784912 33.6916
0834 1400787353 35.4144
0835 1400789794 33.6074
0836 1400792236 32.8792
0837 1400794677 32.8761
0838 1400797119 33.1324
0839 1400799560 33.1367
0840 1400802001 32.9184
0841 1400804443 32.7424
0842 1400806884 32.5022
0843 1400809326 32.2809
0844 1400811767 32.2382
0845 1400814208 32.8914
0846 1400816650 32.6409
0847 1400819091 32.7576
0848 1400821533 42.6185
0849 1400823974 52.9943
0850 1400826416 32.8479
0851 1400828857 32.1749
0852 1400831298 32.2164
0853 1400833740 31.7596
0854 1400836181 31.7327
0855 1400838623 32.2981
0856 1400841064 31.5145
0857 1400843505 31.1997
0858 1400845947 31.7895
0859 1400848388 31.0930
0860 1400850830 30.7266
0861 1400853271 30.7346
0862 1400855712 31.1166
0863 1400858154 31.0284
0864 1400860595 30.6720
0865 1400863037 30.1423
0866 1400865478 30.9973
0867 1400867919 33.8600
0868 1400870361 31.2487
0869 1400872802 29.7789
0870 1400875244 30.0661
0871 1400877685 29.8892
0872 1400880126 29.7665
0873 1400882568 29.6266
0874 1400885009 30.5223
0875 1400887451 35.5848
0876 1400889892 30.8537
0877 1400892333 29.2736
0878 1400894775 28.6158
0879 1400897216 28.7087
0880 1400899658 29.1382
0881 1400902099 27.8028
0882 1400904541 27.9640
0883 1400906982 27.5130
0884 1400909423 27.8596
0885 1400911865 27.6767
0886 1400914306 27.3257
0887 1400916748 27.2522
0888 1400919189 26.8069
0889 1400921630 26.7904
0890 1400924072 26.5607
0891 1400926513 26.8458
0892 1400928955 26.6651
0893 1400931396 26.3906
0894 1400933837 26.0728
0895 1400936279 25.7477
0896 1400938720 25.4030
0897 1400941162 25.2513
0898 1400943603 25.5984
0899 1400946044 25.3506
0900 1400948486 25.0524
0901 1400950927 25.1164
0902 1400953369 24.8713
0903 1400955810 24.3858
0904 1400958251 24.5936
0905 1400960693 24.4901
0906 1400963134 24.0089
0907 1400965576 24.4524
0908 1400968017 23.5266
0909 1400970458 23.1203
0910 1400972900 22.8239
0911 1400975341 22.6428
0912 1400977783 22.5062
0913 1400980224 22.4909
0914 1400982666 22.0044
0915 1400985107 21.7169
0916 1400987548 21.7880
0917 1400989990 21.5545
0918 1400992431 21.2128
0919 1400994873 21.1973
0920 1400997314 20.8074
0921 1400999755 20.8704
0922 1401002197 20.6507
0923 1401004638 20.4687
0924 1401007080 19.9851
0925 1401009521 20.1077
0926 1401011962 20.0215
0927 1401014404 19.6218
0928 1401016845 19.1493
0929 1401019287 19.6339
0930 1401021728 19.6881
0931 1401024169 18.9186
0932 1401026611 18.8655
0933 1401029052 18.5804
0934 1401031494 18.3881
0935 1401033935 18.1321
0936 1401036376 17.7048
0937 1401038818 17.6000
0938 1401041259 17.3900
0939 1401043701 17.4781
0940 1401046142 16.8332
0941 1401048583 16.8506
0942 1401051025 16.7814
0943 1401053466 16.6216
0944 1401055908 16.3600
0945 1401058349 16.1411
0946 1401060791 15.9220
0947 1401063232 15.8092
0948 1401065673 15.8597
0949 1401068115 15.5266
0950 1401070556 15.1198
0951 1401072998 15.3788
0952 1401075439 14.8657
0953 1401077880 14.5371
0954 1401080322 14.6579
0955 1401082763 14.4910
0956 1401085205 14.9611
0957 1401087646 17.0515
0958 1401090087 14.1969
0959 1401092529 13.7291
0960 1401094970 13.4634
0961 1401097412 13.2489
0962 1401099853 13.0836
0963 1401102294 13.0166
0964 1401104736 12.7314
0965 1401107177 12.4742
0966 1401109619 12.4234
0967 1401112060 12.2449
0968 1401114501 12.0321
0969 1401116943 11.9347
0970 1401119384 11.7831
0971 1401121826 11.6201
0972 1401124267 11.5311
0973 1401126708 11.5503
0974 1401129150 11.2172
0975 1401131591 11.4998
0976 1401134033 11.4204
0977 1401136474 10.8338
0978 1401138916 10.5418
0979 1401141357 10.6484
0980 1401143798 10.2580
0981 1401146240 9.9712
0982 1401148681 9.9713
0983 1401151123 9.8842
0984 1401153564 9.8484
0985 1401156005 9.8962
0986 1401158447 9.5809
0987 1401160888 9.3468
0988 1401163330 9.3015
0989 1401165771 9.1839
0990 1401168212 9.0142
0991 1401170654 8.9329
0992 1401173095 8.9592
0993 1401175537 8.6894
0994 1401177978 8.7070
0995 1401180419 8.6628
0996 1401182861 8.6005
0997 1401185302 8.5502
0998 1401187744 9.1126
0999 1401190185 8.3625
1000 1401192626 8.0685
1001 1401195068 8.1806
1002 1401197509 9.2044
1003 1401199951 9.0753
1004 1401202392 8.0847
1005 1401204833 7.7141
1006 1401207275 7.6258
1007 1401209716 7.7500
1008 1401212158 7.5947
1009 1401214599 7.6486
1010 1401217041 7.4249
1011 1401219482 7.3448
1012 1401221923 7.4165
1013 1401224365 7.3218
1014 1401226806 7.2974
1015 1401229248 7.1612
1016 1401231689 7.3358
1017 1401234130 7.0986
1018 1401236572 7.0135
1019 1401239013 7.0899
1020 1401241455 7.1329
1021 1401243896 7.0001
1022 1401246337 7.0493
1023 1401248779 7.0733
