# File: 20-05-31T222942.hot
# NOTEA     = None Attached.  RTLSDR Dongle Test
# NOTEB     = Spectral Integration
# OBSERVER  = Science Aficionado
# DEVICE    = rtlsdr=0
# DATADIR   = ../data/
# SITE      = None Attached.  RTLSDR Dongle Test
# CITY      = Green Bank
# REGION    = West Virginia
# COUNTRY   = US
# TELTYPE   = Bubble Wrap  Horn
# FRAME     = TOPO
# GAIN1     = 49.0
# GAIN2     = 11.0
# GAIN3     = 11.0
# GAIN4     = 0.0
# Count     = 10000
# CenterFreq= 1400000000.0
# Bandwidth = 2500000.0
# Duration  = 41.601905
# DeltaX    = 5859.375
# TSYS      = 200.0
# TRX       = 100.0
# TRMS      = 2.0
# TINT      = 1.0
# KPERC     = 100.0
# GAINFACT  = 1.0
# BUNIT     = Counts
# NCHAN     = 1024
# NSPEC     = 1
# NTIME     = 0
# NSAMPLES  = 0
# EPEAK     = 4.10875183718
# ERMS      = 0.995973393526
# EMJD      = 58568.808999981004 
# REFCHAN   = 512.0
# REFSAMPL  = 256.0
# NAVE      = 100
# NMEDIAN   = 1024
# Fft_rate  = 5000
# UTC       = 2020-05-31 22:29:42.368079
# SECONDS   =       0.0000000000 
# LST       = 09:49:50.560
# AZ        = 180.0
# EL        = -90.0
# TELLON    = -79:50:22.920
# TELLAT    = +38:25:59.160
# RA        = 21:47:22.340
# DEC       = -38:37:30.900
# GALLON    = 04:12:01.20
# GALLAT    = -50:07:43.90
# ALT_SUN   = +22:33:20.6
# AZ_SUN    = +280:58:39.4
# ETAA      = 0.8
# ETAB      = 0.99
# POLANGLE  = 0.0
# TELSIZEAM = 1.0
# TELSIZEBM = 1.0
# AST_VERS  = 05.01
0000 1398751220 7.0643
0001 1398753662 7.0701
0002 1398756103 7.0731
0003 1398758544 7.2789
0004 1398760986 7.1876
0005 1398763427 7.0097
0006 1398765869 7.0190
0007 1398768310 6.9627
0008 1398770751 6.9506
0009 1398773193 7.1200
0010 1398775634 7.2877
0011 1398778076 7.1487
0012 1398780517 7.1552
0013 1398782958 7.1769
0014 1398785400 7.2761
0015 1398787841 7.6489
0016 1398790283 7.3294
0017 1398792724 7.3229
0018 1398795166 7.4495
0019 1398797607 10.6544
0020 1398800048 10.7789
0021 1398802490 7.6339
0022 1398804931 7.5761
0023 1398807373 7.5059
0024 1398809814 7.6554
0025 1398812255 7.7704
0026 1398814697 7.9868
0027 1398817138 7.8500
0028 1398819580 7.9799
0029 1398822021 8.1761
0030 1398824462 8.0605
0031 1398826904 8.2458
0032 1398829345 8.3709
0033 1398831787 8.3634
0034 1398834228 8.8137
0035 1398836669 8.9873
0036 1398839111 8.7218
0037 1398841552 8.8876
0038 1398843994 8.8924
0039 1398846435 8.9284
0040 1398848876 9.1316
0041 1398851318 9.2260
0042 1398853759 9.2668
0043 1398856201 9.3160
0044 1398858642 9.4717
0045 1398861083 9.6108
0046 1398863525 9.6507
0047 1398865966 9.9664
0048 1398868408 10.0206
0049 1398870849 10.1281
0050 1398873291 10.3029
0051 1398875732 10.4437
0052 1398878173 10.4875
0053 1398880615 10.6631
0054 1398883056 10.7870
0055 1398885498 11.1287
0056 1398887939 12.3454
0057 1398890380 11.4340
0058 1398892822 11.5084
0059 1398895263 12.4371
0060 1398897705 12.4959
0061 1398900146 11.7384
0062 1398902587 11.9649
0063 1398905029 12.2039
0064 1398907470 12.5035
0065 1398909912 12.6361
0066 1398912353 13.1194
0067 1398914794 13.4507
0068 1398917236 13.0459
0069 1398919677 13.2682
0070 1398922119 13.1726
0071 1398924560 13.5040
0072 1398927001 14.0292
0073 1398929443 13.9889
0074 1398931884 14.1437
0075 1398934326 14.1039
0076 1398936767 14.1901
0077 1398939208 14.5646
0078 1398941650 14.5364
0079 1398944091 14.7894
0080 1398946533 14.9531
0081 1398948974 15.4911
0082 1398951416 15.2993
0083 1398953857 15.5226
0084 1398956298 16.3776
0085 1398958740 16.5939
0086 1398961181 16.0983
0087 1398963623 16.4900
0088 1398966064 16.4276
0089 1398968505 16.6239
0090 1398970947 17.1232
0091 1398973388 17.2264
0092 1398975830 16.8117
0093 1398978271 17.2297
0094 1398980712 17.6716
0095 1398983154 17.6028
0096 1398985595 18.6670
0097 1398988037 20.8638
0098 1398990478 18.4748
0099 1398992919 18.2733
0100 1398995361 18.3919
0101 1398997802 18.7096
0102 1399000244 19.0494
0103 1399002685 19.3438
0104 1399005126 19.6811
0105 1399007568 20.0938
0106 1399010009 20.9487
0107 1399012451 20.2080
0108 1399014892 20.0244
0109 1399017333 21.0129
0110 1399019775 20.7473
0111 1399022216 20.6887
0112 1399024658 21.0160
0113 1399027099 21.1833
0114 1399029541 21.3743
0115 1399031982 21.5464
0116 1399034423 21.7678
0117 1399036865 21.5895
0118 1399039306 21.8095
0119 1399041748 22.0822
0120 1399044189 21.9966
0121 1399046630 22.3895
0122 1399049072 22.6206
0123 1399051513 22.8117
0124 1399053955 23.0513
0125 1399056396 23.6256
0126 1399058837 23.0483
0127 1399061279 23.2389
0128 1399063720 23.9689
0129 1399066162 23.7085
0130 1399068603 24.2615
0131 1399071044 24.2771
0132 1399073486 24.1032
0133 1399075927 24.0926
0134 1399078369 25.0295
0135 1399080810 24.6462
0136 1399083251 24.4894
0137 1399085693 25.7697
0138 1399088134 26.2989
0139 1399090576 25.1214
0140 1399093017 26.0160
0141 1399095458 26.4060
0142 1399097900 25.8024
0143 1399100341 26.0309
0144 1399102783 25.8646
0145 1399105224 26.1672
0146 1399107666 26.2234
0147 1399110107 26.3364
0148 1399112548 26.7300
0149 1399114990 26.4530
0150 1399117431 27.0778
0151 1399119873 27.2891
0152 1399122314 27.5602
0153 1399124755 27.5849
0154 1399127197 26.7111
0155 1399129638 27.3222
0156 1399132080 27.7923
0157 1399134521 27.9295
0158 1399136962 28.0163
0159 1399139404 28.8851
0160 1399141845 28.2689
0161 1399144287 27.6914
0162 1399146728 28.3915
0163 1399149169 28.4170
0164 1399151611 28.8898
0165 1399154052 29.3781
0166 1399156494 29.3069
0167 1399158935 29.4527
0168 1399161376 29.2444
0169 1399163818 28.7892
0170 1399166259 29.2040
0171 1399168701 29.1800
0172 1399171142 29.2572
0173 1399173583 29.5992
0174 1399176025 29.4490
0175 1399178466 29.6846
0176 1399180908 29.8192
0177 1399183349 30.2095
0178 1399185791 30.6903
0179 1399188232 31.7835
0180 1399190673 31.1055
0181 1399193115 30.2986
0182 1399195556 30.2003
0183 1399197998 31.3970
0184 1399200439 31.6666
0185 1399202880 29.8483
0186 1399205322 30.7756
0187 1399207763 30.8546
0188 1399210205 30.6551
0189 1399212646 30.5999
0190 1399215087 31.2622
0191 1399217529 31.2411
0192 1399219970 31.4874
0193 1399222412 31.7001
0194 1399224853 31.0299
0195 1399227294 30.7168
0196 1399229736 31.2131
0197 1399232177 31.2905
0198 1399234619 31.2850
0199 1399237060 31.9617
0200 1399239501 30.9503
0201 1399241943 31.4164
0202 1399244384 32.8825
0203 1399246826 31.9808
0204 1399249267 31.6757
0205 1399251708 31.6939
0206 1399254150 31.7566
0207 1399256591 32.0730
0208 1399259033 32.4537
0209 1399261474 32.0415
0210 1399263916 31.4012
0211 1399266357 31.8590
0212 1399268798 32.1585
0213 1399271240 32.1061
0214 1399273681 32.3857
0215 1399276123 32.5687
0216 1399278564 31.9246
0217 1399281005 32.0716
0218 1399283447 32.1156
0219 1399285888 34.3432
0220 1399288330 37.5104
0221 1399290771 32.2863
0222 1399293212 32.0822
0223 1399295654 32.1275
0224 1399298095 32.2949
0225 1399300537 32.1810
0226 1399302978 31.9972
0227 1399305419 32.7496
0228 1399307861 32.4291
0229 1399310302 32.0910
0230 1399312744 33.3661
0231 1399315185 33.1036
0232 1399317626 31.8716
0233 1399320068 33.0676
0234 1399322509 32.9882
0235 1399324951 32.0958
0236 1399327392 32.1994
0237 1399329833 32.7622
0238 1399332275 32.7532
0239 1399334716 32.3056
0240 1399337158 32.7683
0241 1399339599 32.3254
0242 1399342041 32.2556
0243 1399344482 32.9970
0244 1399346923 32.3865
0245 1399349365 32.3248
0246 1399351806 32.8314
0247 1399354248 32.1659
0248 1399356689 32.3330
0249 1399359130 31.7519
0250 1399361572 32.5096
0251 1399364013 32.4073
0252 1399366455 32.4212
0253 1399368896 32.6532
0254 1399371337 32.4391
0255 1399373779 33.1832
0256 1399376220 32.2747
0257 1399378662 32.3198
0258 1399381103 33.3316
0259 1399383544 32.5328
0260 1399385986 32.6360
0261 1399388427 32.8589
0262 1399390869 32.9255
0263 1399393310 32.6689
0264 1399395751 32.1786
0265 1399398193 32.5342
0266 1399400634 32.1988
0267 1399403076 31.9454
0268 1399405517 32.1216
0269 1399407958 31.9614
0270 1399410400 32.3677
0271 1399412841 32.5441
0272 1399415283 32.0603
0273 1399417724 31.6271
0274 1399420166 32.1567
0275 1399422607 32.3167
0276 1399425048 32.4742
0277 1399427490 32.0294
0278 1399429931 31.9569
0279 1399432373 32.0970
0280 1399434814 33.2904
0281 1399437255 31.9817
0282 1399439697 32.3405
0283 1399442138 34.7540
0284 1399444580 32.6545
0285 1399447021 31.5320
0286 1399449462 32.3727
0287 1399451904 32.8896
0288 1399454345 31.9530
0289 1399456787 32.2348
0290 1399459228 31.8811
0291 1399461669 31.3549
0292 1399464111 31.9264
0293 1399466552 32.2351
0294 1399468994 31.5033
0295 1399471435 31.7402
0296 1399473876 32.0223
0297 1399476318 31.8659
0298 1399478759 31.7655
0299 1399481201 31.9613
0300 1399483642 31.8975
0301 1399486083 33.6205
0302 1399488525 34.0928
0303 1399490966 31.9318
0304 1399493408 32.1645
0305 1399495849 32.5413
0306 1399498291 32.1881
0307 1399500732 33.1034
0308 1399503173 33.4069
0309 1399505615 32.8356
0310 1399508056 31.5869
0311 1399510498 31.9339
0312 1399512939 31.8724
0313 1399515380 31.5491
0314 1399517822 31.8935
0315 1399520263 31.7644
0316 1399522705 31.5495
0317 1399525146 32.2458
0318 1399527587 31.9772
0319 1399530029 31.9167
0320 1399532470 32.5119
0321 1399534912 32.1445
0322 1399537353 32.0191
0323 1399539794 31.9417
0324 1399542236 31.8613
0325 1399544677 31.7683
0326 1399547119 31.8562
0327 1399549560 32.0752
0328 1399552001 31.7547
0329 1399554443 33.0061
0330 1399556884 33.1941
0331 1399559326 32.1029
0332 1399561767 33.2494
0333 1399564208 35.1235
0334 1399566650 31.9814
0335 1399569091 31.8301
0336 1399571533 32.6374
0337 1399573974 32.1968
0338 1399576416 32.0648
0339 1399578857 32.4454
0340 1399581298 32.1039
0341 1399583740 32.2161
0342 1399586181 35.3596
0343 1399588623 35.9393
0344 1399591064 32.1614
0345 1399593505 33.1070
0346 1399595947 32.6076
0347 1399598388 31.9835
0348 1399600830 32.5126
0349 1399603271 32.5746
0350 1399605712 32.5378
0351 1399608154 32.5203
0352 1399610595 32.5392
0353 1399613037 32.3312
0354 1399615478 33.1295
0355 1399617919 32.8614
0356 1399620361 33.3130
0357 1399622802 34.2094
0358 1399625244 35.2476
0359 1399627685 33.1471
0360 1399630126 33.3857
0361 1399632568 34.7552
0362 1399635009 33.0737
0363 1399637451 33.3560
0364 1399639892 33.2220
0365 1399642333 33.3068
0366 1399644775 33.4711
0367 1399647216 33.4060
0368 1399649658 33.3350
0369 1399652099 33.7186
0370 1399654541 33.9530
0371 1399656982 33.0166
0372 1399659423 33.3293
0373 1399661865 33.5945
0374 1399664306 33.1503
0375 1399666748 33.7612
0376 1399669189 34.1303
0377 1399671630 33.6366
0378 1399674072 34.0328
0379 1399676513 35.1116
0380 1399678955 34.4591
0381 1399681396 35.0960
0382 1399683837 36.1103
0383 1399686279 35.6879
0384 1399688720 33.9036
0385 1399691162 34.0339
0386 1399693603 34.5178
0387 1399696044 33.8198
0388 1399698486 34.5931
0389 1399700927 34.2855
0390 1399703369 34.5597
0391 1399705810 34.3167
0392 1399708251 34.6050
0393 1399710693 34.6586
0394 1399713134 34.7441
0395 1399715576 34.8357
0396 1399718017 34.6895
0397 1399720458 35.2519
0398 1399722900 35.2295
0399 1399725341 34.8315
0400 1399727783 35.2366
0401 1399730224 34.8564
0402 1399732666 34.3615
0403 1399735107 35.2844
0404 1399737548 35.5152
0405 1399739990 34.8048
0406 1399742431 35.5907
0407 1399744873 36.7061
0408 1399747314 36.5270
0409 1399749755 36.1149
0410 1399752197 36.5055
0411 1399754638 35.6287
0412 1399757080 35.8561
0413 1399759521 35.6858
0414 1399761962 35.6453
0415 1399764404 35.7730
0416 1399766845 35.7409
0417 1399769287 35.6398
0418 1399771728 35.9148
0419 1399774169 36.4263
0420 1399776611 36.2676
0421 1399779052 36.9911
0422 1399781494 36.8630
0423 1399783935 36.1929
0424 1399786376 39.6260
0425 1399788818 39.6622
0426 1399791259 38.3555
0427 1399793701 39.9608
0428 1399796142 36.9508
0429 1399798583 37.3201
0430 1399801025 37.2720
0431 1399803466 37.2068
0432 1399805908 37.7514
0433 1399808349 38.2071
0434 1399810791 37.4983
0435 1399813232 37.5130
0436 1399815673 37.1644
0437 1399818115 37.5083
0438 1399820556 37.2856
0439 1399822998 37.0441
0440 1399825439 37.3821
0441 1399827880 37.5241
0442 1399830322 38.2055
0443 1399832763 38.4135
0444 1399835205 37.6708
0445 1399837646 37.5802
0446 1399840087 38.1522
0447 1399842529 38.3932
0448 1399844970 40.1431
0449 1399847412 39.1957
0450 1399849853 37.7369
0451 1399852294 38.2203
0452 1399854736 38.6637
0453 1399857177 39.2253
0454 1399859619 38.8319
0455 1399862060 38.8477
0456 1399864501 38.6202
0457 1399866943 39.6356
0458 1399869384 38.7587
0459 1399871826 38.4244
0460 1399874267 38.9116
0461 1399876708 38.2719
0462 1399879150 38.5299
0463 1399881591 39.0345
0464 1399884033 39.8836
0465 1399886474 41.8342
0466 1399888916 41.5545
0467 1399891357 38.6549
0468 1399893798 38.6410
0469 1399896240 40.1324
0470 1399898681 39.9978
0471 1399901123 38.8528
0472 1399903564 39.3783
0473 1399906005 39.3789
0474 1399908447 39.5384
0475 1399910888 39.2139
0476 1399913330 39.2825
0477 1399915771 39.2057
0478 1399918212 39.3336
0479 1399920654 39.5709
0480 1399923095 40.7393
0481 1399925537 39.8101
0482 1399927978 40.5209
0483 1399930419 40.4780
0484 1399932861 42.5788
0485 1399935302 41.3919
0486 1399937744 40.4026
0487 1399940185 40.4727
0488 1399942626 40.8637
0489 1399945068 40.8228
0490 1399947509 41.0271
0491 1399949951 41.8705
0492 1399952392 41.3125
0493 1399954833 41.0084
0494 1399957275 42.4274
0495 1399959716 42.3632
0496 1399962158 41.1410
0497 1399964599 41.8797
0498 1399967041 41.9303
0499 1399969482 41.5556
0500 1399971923 43.2002
0501 1399974365 47.2357
0502 1399976806 47.5877
0503 1399979248 53.1218
0504 1399981689 58.6502
0505 1399984130 50.6872
0506 1399986572 53.7132
0507 1399989013 67.2711
0508 1399991455 48.1065
0509 1399993896 48.8497
0510 1399996337 208.9017
0511 1399998779 981.1506
0512 1400001220 231.4142
0513 1400003662 53.7108
0514 1400006103 45.8931
0515 1400008544 43.2677
0516 1400010986 43.7814
0517 1400013427 69.9129
0518 1400015869 82.2924
0519 1400018310 43.4912
0520 1400020751 43.7447
0521 1400023193 45.5826
0522 1400025634 45.0693
0523 1400028076 42.8380
0524 1400030517 42.2039
0525 1400032958 42.1997
0526 1400035400 41.8338
0527 1400037841 42.3709
0528 1400040283 42.7238
0529 1400042724 42.1678
0530 1400045166 41.1371
0531 1400047607 42.1699
0532 1400050048 41.8768
0533 1400052490 40.5891
0534 1400054931 41.5125
0535 1400057373 41.4250
0536 1400059814 40.4853
0537 1400062255 40.2030
0538 1400064697 40.4504
0539 1400067138 40.1458
0540 1400069580 39.7088
0541 1400072021 40.3942
0542 1400074462 40.0790
0543 1400076904 39.7860
0544 1400079345 40.3943
0545 1400081787 40.0447
0546 1400084228 41.4903
0547 1400086669 49.1116
0548 1400089111 43.2072
0549 1400091552 39.5578
0550 1400093994 39.3778
0551 1400096435 40.0809
0552 1400098876 39.5426
0553 1400101318 39.1932
0554 1400103759 39.7175
0555 1400106201 38.9642
0556 1400108642 40.6931
0557 1400111083 41.1342
0558 1400113525 38.8424
0559 1400115966 39.1830
0560 1400118408 40.1396
0561 1400120849 39.4298
0562 1400123291 38.8938
0563 1400125732 39.2722
0564 1400128173 39.1061
0565 1400130615 38.6889
0566 1400133056 39.0857
0567 1400135498 38.8111
0568 1400137939 37.9468
0569 1400140380 37.9731
0570 1400142822 38.6883
0571 1400145263 38.4583
0572 1400147705 38.7132
0573 1400150146 37.9522
0574 1400152587 38.2123
0575 1400155029 39.4375
0576 1400157470 39.0012
0577 1400159912 38.3211
0578 1400162353 40.1645
0579 1400164794 38.9175
0580 1400167236 38.8786
0581 1400169677 39.2500
0582 1400172119 38.9133
0583 1400174560 37.5252
0584 1400177001 37.7245
0585 1400179443 37.6049
0586 1400181884 37.2285
0587 1400184326 37.4225
0588 1400186767 39.0598
0589 1400189208 37.9057
0590 1400191650 37.8153
0591 1400194091 37.6743
0592 1400196533 37.6007
0593 1400198974 37.4586
0594 1400201416 37.2710
0595 1400203857 37.1733
0596 1400206298 36.7741
0597 1400208740 37.6926
0598 1400211181 37.2940
0599 1400213623 37.1892
0600 1400216064 37.1264
0601 1400218505 37.1202
0602 1400220947 37.0867
0603 1400223388 37.3932
0604 1400225830 36.7522
0605 1400228271 35.8411
0606 1400230712 36.7654
0607 1400233154 36.8364
0608 1400235595 36.3853
0609 1400238037 35.8409
0610 1400240478 36.1999
0611 1400242919 35.9469
0612 1400245361 35.9581
0613 1400247802 35.8768
0614 1400250244 35.5284
0615 1400252685 36.8656
0616 1400255126 36.5349
0617 1400257568 36.3081
0618 1400260009 36.1516
0619 1400262451 35.3993
0620 1400264892 35.6406
0621 1400267333 35.8195
0622 1400269775 35.4183
0623 1400272216 34.7834
0624 1400274658 35.3964
0625 1400277099 35.9331
0626 1400279541 35.6455
0627 1400281982 35.6951
0628 1400284423 37.7603
0629 1400286865 37.8786
0630 1400289306 36.1120
0631 1400291748 38.0115
0632 1400294189 35.9289
0633 1400296630 35.1831
0634 1400299072 34.5038
0635 1400301513 34.8228
0636 1400303955 34.9288
0637 1400306396 34.7678
0638 1400308837 34.6122
0639 1400311279 34.7022
0640 1400313720 34.4588
0641 1400316162 34.7709
0642 1400318603 34.9286
0643 1400321044 34.8503
0644 1400323486 35.1326
0645 1400325927 33.8601
0646 1400328369 34.4446
0647 1400330810 34.6216
0648 1400333251 34.2109
0649 1400335693 34.2952
0650 1400338134 34.2537
0651 1400340576 34.2400
0652 1400343017 34.5492
0653 1400345458 36.0521
0654 1400347900 33.6627
0655 1400350341 33.8532
0656 1400352783 34.9179
0657 1400355224 34.4295
0658 1400357666 34.3563
0659 1400360107 33.8615
0660 1400362548 33.8073
0661 1400364990 33.3690
0662 1400367431 33.7968
0663 1400369873 33.8394
0664 1400372314 33.5050
0665 1400374755 33.8273
0666 1400377197 34.1017
0667 1400379638 34.0470
0668 1400382080 33.4654
0669 1400384521 34.0347
0670 1400386962 38.0666
0671 1400389404 35.6683
0672 1400391845 33.7027
0673 1400394287 33.1016
0674 1400396728 33.6633
0675 1400399169 33.9581
0676 1400401611 33.7668
0677 1400404052 33.9722
0678 1400406494 34.2541
0679 1400408935 33.3773
0680 1400411376 33.7987
0681 1400413818 35.1502
0682 1400416259 33.7512
0683 1400418701 32.5984
0684 1400421142 33.3871
0685 1400423583 33.0736
0686 1400426025 32.9427
0687 1400428466 32.9049
0688 1400430908 33.0948
0689 1400433349 33.0267
0690 1400435791 32.7661
0691 1400438232 32.6023
0692 1400440673 32.5452
0693 1400443115 33.2834
0694 1400445556 33.4956
0695 1400447998 32.3325
0696 1400450439 32.9977
0697 1400452880 33.0636
0698 1400455322 33.1453
0699 1400457763 33.3752
0700 1400460205 33.0851
0701 1400462646 32.7733
0702 1400465087 33.9968
0703 1400467529 34.0379
0704 1400469970 32.6933
0705 1400472412 32.9364
0706 1400474853 34.1301
0707 1400477294 32.9276
0708 1400479736 32.3889
0709 1400482177 33.0375
0710 1400484619 32.8047
0711 1400487060 32.7641
0712 1400489501 33.0570
0713 1400491943 32.8219
0714 1400494384 35.0658
0715 1400496826 40.1324
0716 1400499267 35.3074
0717 1400501708 32.9178
0718 1400504150 32.8086
0719 1400506591 32.4826
0720 1400509033 32.6351
0721 1400511474 33.2103
0722 1400513916 32.8521
0723 1400516357 32.6420
0724 1400518798 33.4799
0725 1400521240 33.6912
0726 1400523681 33.3740
0727 1400526123 34.1874
0728 1400528564 33.1515
0729 1400531005 32.8571
0730 1400533447 33.4662
0731 1400535888 33.8930
0732 1400538330 33.2820
0733 1400540771 33.5613
0734 1400543212 33.9207
0735 1400545654 33.3338
0736 1400548095 32.8867
0737 1400550537 33.2293
0738 1400552978 32.8269
0739 1400555419 33.4219
0740 1400557861 33.7707
0741 1400560302 33.2913
0742 1400562744 32.9663
0743 1400565185 33.0472
0744 1400567626 32.9933
0745 1400570068 33.2857
0746 1400572509 34.0811
0747 1400574951 33.4726
0748 1400577392 33.6259
0749 1400579833 33.5521
0750 1400582275 33.4979
0751 1400584716 33.6142
0752 1400587158 39.6445
0753 1400589599 35.1058
0754 1400592041 33.0177
0755 1400594482 34.8227
0756 1400596923 35.0772
0757 1400599365 33.2516
0758 1400601806 33.1052
0759 1400604248 33.3979
0760 1400606689 33.3543
0761 1400609130 34.2691
0762 1400611572 34.5609
0763 1400614013 33.6342
0764 1400616455 33.3584
0765 1400618896 34.1262
0766 1400621337 33.4098
0767 1400623779 33.7093
0768 1400626220 33.9823
0769 1400628662 33.7137
0770 1400631103 33.7569
0771 1400633544 34.1647
0772 1400635986 34.1734
0773 1400638427 33.4291
0774 1400640869 35.0749
0775 1400643310 34.1483
0776 1400645751 33.9618
0777 1400648193 34.7688
0778 1400650634 33.8610
0779 1400653076 33.7931
0780 1400655517 34.9450
0781 1400657958 34.4882
0782 1400660400 33.5399
0783 1400662841 34.2233
0784 1400665283 33.7623
0785 1400667724 33.7503
0786 1400670166 34.9785
0787 1400672607 42.2749
0788 1400675048 53.9905
0789 1400677490 36.1608
0790 1400679931 34.0243
0791 1400682373 33.6658
0792 1400684814 33.9511
0793 1400687255 35.8333
0794 1400689697 34.0835
0795 1400692138 34.2511
0796 1400694580 39.8026
0797 1400697021 36.8322
0798 1400699462 33.8745
0799 1400701904 33.9702
0800 1400704345 33.8020
0801 1400706787 33.7972
0802 1400709228 33.9255
0803 1400711669 33.3400
0804 1400714111 33.7620
0805 1400716552 36.1688
0806 1400718994 34.7552
0807 1400721435 33.7632
0808 1400723876 34.2598
0809 1400726318 33.1919
0810 1400728759 33.4167
0811 1400731201 33.7791
0812 1400733642 34.0247
0813 1400736083 33.3599
0814 1400738525 33.7219
0815 1400740966 33.8029
0816 1400743408 33.2420
0817 1400745849 33.5488
0818 1400748291 33.8198
0819 1400750732 33.3822
0820 1400753173 33.6188
0821 1400755615 33.4152
0822 1400758056 32.8654
0823 1400760498 32.8677
0824 1400762939 32.9125
0825 1400765380 32.7814
0826 1400767822 33.8052
0827 1400770263 33.5054
0828 1400772705 32.8449
0829 1400775146 32.8342
0830 1400777587 35.4946
0831 1400780029 33.7031
0832 1400782470 32.3967
0833 1400784912 32.6215
0834 1400787353 34.0743
0835 1400789794 32.8525
0836 1400792236 32.8678
0837 1400794677 32.7331
0838 1400797119 32.5559
0839 1400799560 33.0195
0840 1400802001 32.4369
0841 1400804443 31.9753
0842 1400806884 31.8523
0843 1400809326 31.8598
0844 1400811767 31.4670
0845 1400814208 32.4352
0846 1400816650 31.8378
0847 1400819091 32.2875
0848 1400821533 35.7564
0849 1400823974 38.4118
0850 1400826416 31.8730
0851 1400828857 32.0238
0852 1400831298 31.9549
0853 1400833740 31.4922
0854 1400836181 31.3761
0855 1400838623 32.5575
0856 1400841064 31.0734
0857 1400843505 30.7519
0858 1400845947 31.0634
0859 1400848388 30.5748
0860 1400850830 30.0372
0861 1400853271 30.2820
0862 1400855712 30.1813
0863 1400858154 30.3830
0864 1400860595 30.0290
0865 1400863037 30.2809
0866 1400865478 29.9028
0867 1400867919 31.0648
0868 1400870361 30.0320
0869 1400872802 29.4994
0870 1400875244 29.4670
0871 1400877685 29.0759
0872 1400880126 29.1366
0873 1400882568 29.1234
0874 1400885009 29.7440
0875 1400887451 33.1856
0876 1400889892 29.7823
0877 1400892333 28.5624
0878 1400894775 28.1753
0879 1400897216 28.3079
0880 1400899658 29.5991
0881 1400902099 27.4725
0882 1400904541 27.5955
0883 1400906982 27.1827
0884 1400909423 26.9902
0885 1400911865 27.2826
0886 1400914306 27.1050
0887 1400916748 26.7262
0888 1400919189 26.4133
0889 1400921630 26.7056
0890 1400924072 26.0527
0891 1400926513 26.2127
0892 1400928955 26.3730
0893 1400931396 26.2498
0894 1400933837 25.6950
0895 1400936279 25.3791
0896 1400938720 25.1333
0897 1400941162 25.0868
0898 1400943603 25.1555
0899 1400946044 24.6764
0900 1400948486 24.7035
0901 1400950927 24.8390
0902 1400953369 24.6850
0903 1400955810 23.9515
0904 1400958251 25.0843
0905 1400960693 25.1387
0906 1400963134 23.4682
0907 1400965576 24.0134
0908 1400968017 23.0420
0909 1400970458 22.7568
0910 1400972900 22.6216
0911 1400975341 22.5137
0912 1400977783 22.1283
0913 1400980224 22.1010
0914 1400982666 21.8284
0915 1400985107 21.5280
0916 1400987548 21.6771
0917 1400989990 21.6139
0918 1400992431 21.2214
0919 1400994873 20.9043
0920 1400997314 20.8372
0921 1400999755 20.5926
0922 1401002197 20.4584
0923 1401004638 20.2523
0924 1401007080 19.8471
0925 1401009521 20.1103
0926 1401011962 20.3220
0927 1401014404 19.1976
0928 1401016845 18.9853
0929 1401019287 19.8130
0930 1401021728 19.5266
0931 1401024169 18.7845
0932 1401026611 18.5229
0933 1401029052 18.3394
0934 1401031494 18.1577
0935 1401033935 17.4648
0936 1401036376 17.2985
0937 1401038818 17.0353
0938 1401041259 17.3015
0939 1401043701 17.2948
0940 1401046142 16.7977
0941 1401048583 16.3376
0942 1401051025 16.2798
0943 1401053466 16.1417
0944 1401055908 15.8837
0945 1401058349 15.9546
0946 1401060791 15.8508
0947 1401063232 15.7744
0948 1401065673 15.7089
0949 1401068115 15.4091
0950 1401070556 15.1146
0951 1401072998 14.9013
0952 1401075439 14.6606
0953 1401077880 14.2252
0954 1401080322 14.8248
0955 1401082763 14.3337
0956 1401085205 14.5621
0957 1401087646 16.0262
0958 1401090087 13.9269
0959 1401092529 13.4614
0960 1401094970 13.1498
0961 1401097412 13.0617
0962 1401099853 12.8176
0963 1401102294 12.8184
0964 1401104736 12.5780
0965 1401107177 12.4393
0966 1401109619 12.1576
0967 1401112060 12.0437
0968 1401114501 11.9097
0969 1401116943 11.7053
0970 1401119384 11.5346
0971 1401121826 11.5460
0972 1401124267 11.4839
0973 1401126708 11.4144
0974 1401129150 11.1253
0975 1401131591 11.4023
0976 1401134033 11.3162
0977 1401136474 10.6041
0978 1401138916 10.3243
0979 1401141357 10.4495
0980 1401143798 10.1610
0981 1401146240 9.9565
0982 1401148681 10.0540
0983 1401151123 9.8998
0984 1401153564 9.7266
0985 1401156005 9.6569
0986 1401158447 9.5411
0987 1401160888 9.2986
0988 1401163330 9.2439
0989 1401165771 9.0410
0990 1401168212 8.9473
0991 1401170654 8.8830
0992 1401173095 8.8301
0993 1401175537 8.7763
0994 1401177978 8.5968
0995 1401180419 8.6423
0996 1401182861 8.3321
0997 1401185302 8.4653
0998 1401187744 8.8677
0999 1401190185 8.4893
1000 1401192626 8.1375
1001 1401195068 8.1588
1002 1401197509 10.9801
1003 1401199951 11.4597
1004 1401202392 8.1473
1005 1401204833 7.6902
1006 1401207275 7.5763
1007 1401209716 7.5686
1008 1401212158 7.6165
1009 1401214599 7.9776
1010 1401217041 7.4422
1011 1401219482 7.2804
1012 1401221923 7.2641
1013 1401224365 7.2878
1014 1401226806 7.2120
1015 1401229248 7.1102
1016 1401231689 7.1618
1017 1401234130 7.1375
1018 1401236572 7.0016
1019 1401239013 7.0198
1020 1401241455 7.0591
1021 1401243896 7.1013
1022 1401246337 7.0993
1023 1401248779 7.0947
