# File: 20-05-31T223525.hot
# NOTEA     = None Attached.  RTLSDR Dongle Test
# NOTEB     = Spectral Integration
# OBSERVER  = Science Aficionado
# DEVICE    = rtlsdr=0
# DATADIR   = ../data/
# SITE      = None Attached.  RTLSDR Dongle Test
# CITY      = Green Bank
# REGION    = West Virginia
# COUNTRY   = US
# TELTYPE   = Bubble Wrap  Horn
# FRAME     = TOPO
# GAIN1     = 49.0
# GAIN2     = 11.0
# GAIN3     = 11.0
# GAIN4     = 0.0
# Count     = 10000
# CenterFreq= 1400000000.0
# Bandwidth = 2500000.0
# Duration  = 41.95354
# DeltaX    = 5859.375
# TSYS      = 200.0
# TRX       = 100.0
# TRMS      = 2.0
# TINT      = 1.0
# KPERC     = 100.0
# GAINFACT  = 1.0
# BUNIT     = Counts
# NCHAN     = 1024
# NSPEC     = 1
# NTIME     = 0
# NSAMPLES  = 0
# EPEAK     = 4.10875183718
# ERMS      = 0.995973393526
# EMJD      = 58568.808999981004 
# REFCHAN   = 512.0
# REFSAMPL  = 256.0
# NAVE      = 100
# NMEDIAN   = 1024
# Fft_rate  = 5000
# UTC       = 2020-05-31 22:35:25.780193
# SECONDS   =       0.0000000000 
# LST       = 09:55:34.910
# AZ        = 180.0
# EL        = -90.0
# TELLON    = -79:50:22.920
# TELLAT    = +38:25:59.160
# RA        = 21:53:07.650
# DEC       = -38:37:41.700
# GALLON    = 04:05:55.20
# GALLAT    = -51:15:03.70
# ALT_SUN   = +21:27:34.1
# AZ_SUN    = +281:46:41.8
# ETAA      = 0.8
# ETAB      = 0.99
# POLANGLE  = 0.0
# TELSIZEAM = 1.0
# TELSIZEBM = 1.0
# AST_VERS  = 05.01
0000 1398751220 7.0908
0001 1398753662 7.0222
0002 1398756103 7.0700
0003 1398758544 6.9782
0004 1398760986 7.0523
0005 1398763427 7.2447
0006 1398765869 7.0447
0007 1398768310 6.9682
0008 1398770751 6.9214
0009 1398773193 7.1659
0010 1398775634 7.5830
0011 1398778076 7.2677
0012 1398780517 7.1091
0013 1398782958 7.1256
0014 1398785400 7.2831
0015 1398787841 7.5296
0016 1398790283 7.3012
0017 1398792724 7.2321
0018 1398795166 7.3369
0019 1398797607 8.0742
0020 1398800048 8.2085
0021 1398802490 7.6613
0022 1398804931 7.5780
0023 1398807373 7.5497
0024 1398809814 7.6654
0025 1398812255 7.8257
0026 1398814697 7.8524
0027 1398817138 7.8592
0028 1398819580 7.8368
0029 1398822021 8.0366
0030 1398824462 8.0699
0031 1398826904 8.2070
0032 1398829345 8.2405
0033 1398831787 8.3655
0034 1398834228 8.7982
0035 1398836669 9.2475
0036 1398839111 8.5810
0037 1398841552 8.7087
0038 1398843994 8.8225
0039 1398846435 8.7992
0040 1398848876 9.0553
0041 1398851318 9.1141
0042 1398853759 9.3007
0043 1398856201 9.3800
0044 1398858642 9.5370
0045 1398861083 9.4976
0046 1398863525 9.6125
0047 1398865966 10.0881
0048 1398868408 10.2159
0049 1398870849 10.0732
0050 1398873291 10.3493
0051 1398875732 10.4326
0052 1398878173 10.5084
0053 1398880615 10.6614
0054 1398883056 10.7833
0055 1398885498 11.1574
0056 1398887939 12.3245
0057 1398890380 11.4959
0058 1398892822 11.2999
0059 1398895263 12.6184
0060 1398897705 13.1547
0061 1398900146 12.0512
0062 1398902587 11.9579
0063 1398905029 12.0367
0064 1398907470 12.5210
0065 1398909912 12.4741
0066 1398912353 12.5730
0067 1398914794 12.8197
0068 1398917236 13.1602
0069 1398919677 13.4132
0070 1398922119 13.2471
0071 1398924560 13.5622
0072 1398927001 14.2354
0073 1398929443 13.8984
0074 1398931884 13.9341
0075 1398934326 13.9753
0076 1398936767 14.1990
0077 1398939208 14.4337
0078 1398941650 14.6649
0079 1398944091 14.6976
0080 1398946533 14.7776
0081 1398948974 15.1508
0082 1398951416 15.2227
0083 1398953857 15.4241
0084 1398956298 16.7309
0085 1398958740 16.6251
0086 1398961181 16.0290
0087 1398963623 16.4218
0088 1398966064 16.7449
0089 1398968505 16.8218
0090 1398970947 17.0887
0091 1398973388 17.1951
0092 1398975830 16.9940
0093 1398978271 16.9795
0094 1398980712 17.3273
0095 1398983154 17.3017
0096 1398985595 18.3608
0097 1398988037 20.1001
0098 1398990478 18.3161
0099 1398992919 18.2842
0100 1398995361 18.4314
0101 1398997802 18.6248
0102 1399000244 18.8667
0103 1399002685 19.1654
0104 1399005126 19.0394
0105 1399007568 19.7351
0106 1399010009 20.3092
0107 1399012451 19.8358
0108 1399014892 20.1576
0109 1399017333 21.6279
0110 1399019775 20.8732
0111 1399022216 20.5603
0112 1399024658 21.1566
0113 1399027099 21.0320
0114 1399029541 21.1916
0115 1399031982 21.5053
0116 1399034423 21.5292
0117 1399036865 21.2505
0118 1399039306 22.0956
0119 1399041748 22.0871
0120 1399044189 22.1230
0121 1399046630 22.2826
0122 1399049072 22.2042
0123 1399051513 22.6774
0124 1399053955 23.2748
0125 1399056396 23.8423
0126 1399058837 22.8324
0127 1399061279 23.5108
0128 1399063720 24.2371
0129 1399066162 23.3854
0130 1399068603 24.0891
0131 1399071044 24.4075
0132 1399073486 23.8276
0133 1399075927 24.1056
0134 1399078369 25.2181
0135 1399080810 24.4778
0136 1399083251 24.5852
0137 1399085693 25.9119
0138 1399088134 26.6665
0139 1399090576 25.4211
0140 1399093017 25.5887
0141 1399095458 25.5569
0142 1399097900 25.3224
0143 1399100341 26.0549
0144 1399102783 25.8393
0145 1399105224 26.1598
0146 1399107666 26.0456
0147 1399110107 26.3504
0148 1399112548 26.4652
0149 1399114990 26.1884
0150 1399117431 27.1296
0151 1399119873 27.4709
0152 1399122314 27.6091
0153 1399124755 27.1833
0154 1399127197 26.8334
0155 1399129638 27.6626
0156 1399132080 27.6649
0157 1399134521 27.5738
0158 1399136962 28.2044
0159 1399139404 29.2967
0160 1399141845 27.9466
0161 1399144287 27.7929
0162 1399146728 28.2374
0163 1399149169 28.6940
0164 1399151611 28.7626
0165 1399154052 29.3815
0166 1399156494 28.7497
0167 1399158935 28.4047
0168 1399161376 28.9975
0169 1399163818 28.7572
0170 1399166259 28.8524
0171 1399168701 29.2496
0172 1399171142 29.5735
0173 1399173583 29.3296
0174 1399176025 29.2710
0175 1399178466 29.3965
0176 1399180908 29.6590
0177 1399183349 30.0198
0178 1399185791 30.5471
0179 1399188232 30.7757
0180 1399190673 31.0236
0181 1399193115 30.1722
0182 1399195556 29.8076
0183 1399197998 31.0084
0184 1399200439 30.8738
0185 1399202880 30.3079
0186 1399205322 30.3169
0187 1399207763 30.3664
0188 1399210205 30.9205
0189 1399212646 30.8164
0190 1399215087 31.1497
0191 1399217529 30.6375
0192 1399219970 30.8539
0193 1399222412 31.3276
0194 1399224853 30.6456
0195 1399227294 30.6654
0196 1399229736 30.7555
0197 1399232177 30.7530
0198 1399234619 30.9036
0199 1399237060 31.5298
0200 1399239501 31.2154
0201 1399241943 31.4248
0202 1399244384 33.9370
0203 1399246826 32.5451
0204 1399249267 31.2246
0205 1399251708 31.7573
0206 1399254150 31.7010
0207 1399256591 31.7814
0208 1399259033 32.4721
0209 1399261474 31.6981
0210 1399263916 31.3875
0211 1399266357 31.7467
0212 1399268798 31.8123
0213 1399271240 31.4601
0214 1399273681 32.3905
0215 1399276123 33.3466
0216 1399278564 31.6103
0217 1399281005 31.3939
0218 1399283447 31.9881
0219 1399285888 33.6529
0220 1399288330 35.5306
0221 1399290771 31.9890
0222 1399293212 31.8828
0223 1399295654 31.9180
0224 1399298095 31.8739
0225 1399300537 32.0351
0226 1399302978 32.1250
0227 1399305419 33.2951
0228 1399307861 33.2242
0229 1399310302 32.0251
0230 1399312744 32.9251
0231 1399315185 32.5734
0232 1399317626 32.1347
0233 1399320068 32.7245
0234 1399322509 32.6366
0235 1399324951 32.1741
0236 1399327392 32.0478
0237 1399329833 32.2827
0238 1399332275 32.2002
0239 1399334716 32.1809
0240 1399337158 33.6690
0241 1399339599 33.1585
0242 1399342041 32.6976
0243 1399344482 32.6208
0244 1399346923 31.8648
0245 1399349365 32.1632
0246 1399351806 32.3299
0247 1399354248 32.1360
0248 1399356689 32.4366
0249 1399359130 32.5592
0250 1399361572 32.2570
0251 1399364013 32.9924
0252 1399366455 32.9285
0253 1399368896 33.2650
0254 1399371337 32.6454
0255 1399373779 33.4572
0256 1399376220 32.0843
0257 1399378662 32.7251
0258 1399381103 33.7960
0259 1399383544 32.6513
0260 1399385986 31.8481
0261 1399388427 32.6378
0262 1399390869 32.5206
0263 1399393310 31.6006
0264 1399395751 31.9517
0265 1399398193 32.0067
0266 1399400634 33.1562
0267 1399403076 32.5821
0268 1399405517 31.9474
0269 1399407958 31.8654
0270 1399410400 32.6914
0271 1399412841 32.5068
0272 1399415283 31.7264
0273 1399417724 31.7603
0274 1399420166 32.2210
0275 1399422607 32.3332
0276 1399425048 31.7338
0277 1399427490 32.0473
0278 1399429931 31.6946
0279 1399432373 32.4945
0280 1399434814 33.3532
0281 1399437255 31.7844
0282 1399439697 32.2051
0283 1399442138 34.5805
0284 1399444580 32.3137
0285 1399447021 31.4317
0286 1399449462 32.0967
0287 1399451904 32.8902
0288 1399454345 31.8223
0289 1399456787 31.9018
0290 1399459228 31.8252
0291 1399461669 31.7308
0292 1399464111 32.1045
0293 1399466552 31.7968
0294 1399468994 31.4277
0295 1399471435 31.6353
0296 1399473876 32.3603
0297 1399476318 31.8531
0298 1399478759 31.1612
0299 1399481201 31.2970
0300 1399483642 31.5526
0301 1399486083 33.1376
0302 1399488525 33.5130
0303 1399490966 31.7156
0304 1399493408 32.1562
0305 1399495849 33.0955
0306 1399498291 31.9737
0307 1399500732 33.0385
0308 1399503173 33.6832
0309 1399505615 32.1841
0310 1399508056 31.5155
0311 1399510498 32.3246
0312 1399512939 32.2418
0313 1399515380 31.8138
0314 1399517822 32.6038
0315 1399520263 31.6153
0316 1399522705 31.6629
0317 1399525146 32.5442
0318 1399527587 31.6834
0319 1399530029 31.6774
0320 1399532470 32.3338
0321 1399534912 31.9985
0322 1399537353 31.6269
0323 1399539794 32.2701
0324 1399542236 31.6565
0325 1399544677 31.4826
0326 1399547119 31.9267
0327 1399549560 32.0367
0328 1399552001 31.7083
0329 1399554443 33.4114
0330 1399556884 34.1956
0331 1399559326 32.6493
0332 1399561767 34.4148
0333 1399564208 37.0599
0334 1399566650 32.1804
0335 1399569091 32.0990
0336 1399571533 32.6177
0337 1399573974 32.0059
0338 1399576416 31.9436
0339 1399578857 31.9546
0340 1399581298 31.9475
0341 1399583740 32.1325
0342 1399586181 34.6606
0343 1399588623 35.3912
0344 1399591064 32.7881
0345 1399593505 33.8983
0346 1399595947 32.9949
0347 1399598388 32.0362
0348 1399600830 32.2459
0349 1399603271 32.2756
0350 1399605712 31.9811
0351 1399608154 32.7666
0352 1399610595 32.3913
0353 1399613037 31.9739
0354 1399615478 33.6140
0355 1399617919 33.3178
0356 1399620361 33.9585
0357 1399622802 35.3765
0358 1399625244 36.8439
0359 1399627685 33.0321
0360 1399630126 33.2085
0361 1399632568 34.0377
0362 1399635009 33.0878
0363 1399637451 33.9759
0364 1399639892 33.6108
0365 1399642333 33.0950
0366 1399644775 33.1725
0367 1399647216 33.6183
0368 1399649658 33.1352
0369 1399652099 34.3572
0370 1399654541 34.4332
0371 1399656982 33.0517
0372 1399659423 33.4186
0373 1399661865 33.6830
0374 1399664306 33.3045
0375 1399666748 33.4051
0376 1399669189 34.2039
0377 1399671630 33.8716
0378 1399674072 33.5604
0379 1399676513 35.3193
0380 1399678955 34.0971
0381 1399681396 35.8507
0382 1399683837 38.1184
0383 1399686279 37.5138
0384 1399688720 33.5647
0385 1399691162 34.2334
0386 1399693603 34.6290
0387 1399696044 33.5273
0388 1399698486 34.0584
0389 1399700927 34.5490
0390 1399703369 33.9277
0391 1399705810 34.2820
0392 1399708251 34.0913
0393 1399710693 34.0984
0394 1399713134 34.8732
0395 1399715576 35.3301
0396 1399718017 34.5657
0397 1399720458 35.2772
0398 1399722900 35.6247
0399 1399725341 34.4986
0400 1399727783 35.1076
0401 1399730224 35.2523
0402 1399732666 34.5773
0403 1399735107 35.0547
0404 1399737548 35.9848
0405 1399739990 34.8410
0406 1399742431 35.1906
0407 1399744873 37.8343
0408 1399747314 37.9751
0409 1399749755 35.3216
0410 1399752197 36.2659
0411 1399754638 35.4991
0412 1399757080 35.7033
0413 1399759521 35.7219
0414 1399761962 35.3528
0415 1399764404 35.6298
0416 1399766845 35.9306
0417 1399769287 35.9959
0418 1399771728 35.5994
0419 1399774169 35.6607
0420 1399776611 37.2345
0421 1399779052 36.5778
0422 1399781494 36.2848
0423 1399783935 36.4643
0424 1399786376 38.5523
0425 1399788818 38.5285
0426 1399791259 36.5374
0427 1399793701 36.6137
0428 1399796142 37.1734
0429 1399798583 37.6275
0430 1399801025 37.3429
0431 1399803466 37.5298
0432 1399805908 38.2066
0433 1399808349 38.6765
0434 1399810791 37.6848
0435 1399813232 38.4410
0436 1399815673 37.3448
0437 1399818115 37.1574
0438 1399820556 37.2530
0439 1399822998 36.9226
0440 1399825439 37.5250
0441 1399827880 37.6795
0442 1399830322 38.3652
0443 1399832763 37.7225
0444 1399835205 37.4481
0445 1399837646 37.1686
0446 1399840087 38.1115
0447 1399842529 38.6940
0448 1399844970 37.9296
0449 1399847412 37.6285
0450 1399849853 37.6329
0451 1399852294 38.3473
0452 1399854736 38.2307
0453 1399857177 39.7851
0454 1399859619 39.8171
0455 1399862060 38.9720
0456 1399864501 38.8252
0457 1399866943 40.4959
0458 1399869384 39.0540
0459 1399871826 39.7136
0460 1399874267 39.5274
0461 1399876708 38.2573
0462 1399879150 38.5373
0463 1399881591 39.4543
0464 1399884033 39.2779
0465 1399886474 40.6535
0466 1399888916 40.7132
0467 1399891357 38.8139
0468 1399893798 38.8530
0469 1399896240 39.8370
0470 1399898681 39.5950
0471 1399901123 39.0742
0472 1399903564 39.8616
0473 1399906005 39.0179
0474 1399908447 39.1142
0475 1399910888 39.1452
0476 1399913330 39.4009
0477 1399915771 39.3779
0478 1399918212 39.6129
0479 1399920654 40.0953
0480 1399923095 40.2285
0481 1399925537 39.4977
0482 1399927978 40.3237
0483 1399930419 39.9998
0484 1399932861 42.1035
0485 1399935302 44.2208
0486 1399937744 40.4402
0487 1399940185 40.0867
0488 1399942626 40.5151
0489 1399945068 40.1353
0490 1399947509 39.7222
0491 1399949951 40.4157
0492 1399952392 40.5532
0493 1399954833 39.9837
0494 1399957275 40.9375
0495 1399959716 40.7515
0496 1399962158 41.0723
0497 1399964599 42.3034
0498 1399967041 41.1484
0499 1399969482 40.7614
0500 1399971923 41.6561
0501 1399974365 51.8936
0502 1399976806 50.8513
0503 1399979248 50.9277
0504 1399981689 46.4661
0505 1399984130 44.3104
0506 1399986572 53.8266
0507 1399989013 63.1867
0508 1399991455 47.3912
0509 1399993896 44.9886
0510 1399996337 85.7674
0511 1399998779 278.0273
0512 1400001220 88.4459
0513 1400003662 50.5554
0514 1400006103 45.0769
0515 1400008544 42.5306
0516 1400010986 44.1680
0517 1400013427 51.2078
0518 1400015869 54.7384
0519 1400018310 41.8014
0520 1400020751 41.6366
0521 1400023193 42.5998
0522 1400025634 42.2690
0523 1400028076 41.7052
0524 1400030517 41.5364
0525 1400032958 40.9191
0526 1400035400 40.3704
0527 1400037841 40.6238
0528 1400040283 41.2552
0529 1400042724 41.4790
0530 1400045166 40.3656
0531 1400047607 40.5607
0532 1400050048 41.1030
0533 1400052490 40.5595
0534 1400054931 41.8217
0535 1400057373 40.8206
0536 1400059814 40.2911
0537 1400062255 39.7457
0538 1400064697 39.7336
0539 1400067138 39.7058
0540 1400069580 39.5643
0541 1400072021 41.0854
0542 1400074462 40.0190
0543 1400076904 39.6396
0544 1400079345 39.8144
0545 1400081787 39.4504
0546 1400084228 39.5614
0547 1400086669 43.8957
0548 1400089111 42.0350
0549 1400091552 39.8230
0550 1400093994 40.5542
0551 1400096435 39.9849
0552 1400098876 39.4062
0553 1400101318 39.2001
0554 1400103759 39.7335
0555 1400106201 39.3217
0556 1400108642 40.5270
0557 1400111083 41.5423
0558 1400113525 39.2289
0559 1400115966 39.3107
0560 1400118408 39.6964
0561 1400120849 38.5856
0562 1400123291 38.8629
0563 1400125732 39.6191
0564 1400128173 38.9372
0565 1400130615 38.5357
0566 1400133056 38.5762
0567 1400135498 38.5964
0568 1400137939 38.4176
0569 1400140380 38.1064
0570 1400142822 38.2957
0571 1400145263 38.0899
0572 1400147705 38.5488
0573 1400150146 38.3900
0574 1400152587 38.1853
0575 1400155029 40.0914
0576 1400157470 38.8620
0577 1400159912 38.7460
0578 1400162353 40.4268
0579 1400164794 39.3397
0580 1400167236 38.1705
0581 1400169677 39.3523
0582 1400172119 39.3513
0583 1400174560 37.9524
0584 1400177001 38.3231
0585 1400179443 37.7737
0586 1400181884 37.9342
0587 1400184326 37.7333
0588 1400186767 38.6029
0589 1400189208 37.7515
0590 1400191650 37.4790
0591 1400194091 37.9053
0592 1400196533 36.8334
0593 1400198974 37.1094
0594 1400201416 37.3831
0595 1400203857 37.1694
0596 1400206298 36.8563
0597 1400208740 37.9332
0598 1400211181 37.3471
0599 1400213623 36.7667
0600 1400216064 37.1346
0601 1400218505 37.1953
0602 1400220947 36.9806
0603 1400223388 37.5337
0604 1400225830 37.0566
0605 1400228271 36.1004
0606 1400230712 37.1337
0607 1400233154 37.0646
0608 1400235595 36.9833
0609 1400238037 36.6296
0610 1400240478 36.5474
0611 1400242919 36.0737
0612 1400245361 36.1928
0613 1400247802 35.9094
0614 1400250244 35.8767
0615 1400252685 36.9059
0616 1400255126 37.1573
0617 1400257568 35.7502
0618 1400260009 35.7022
0619 1400262451 36.0485
0620 1400264892 35.5698
0621 1400267333 35.5687
0622 1400269775 35.2638
0623 1400272216 35.0431
0624 1400274658 35.5062
0625 1400277099 36.2529
0626 1400279541 36.0290
0627 1400281982 36.7045
0628 1400284423 39.4044
0629 1400286865 37.5263
0630 1400289306 35.7999
0631 1400291748 40.2299
0632 1400294189 37.1332
0633 1400296630 34.7949
0634 1400299072 35.1791
0635 1400301513 35.2862
0636 1400303955 34.4158
0637 1400306396 34.9340
0638 1400308837 34.5328
0639 1400311279 34.1903
0640 1400313720 34.6319
0641 1400316162 34.7556
0642 1400318603 34.4043
0643 1400321044 35.3281
0644 1400323486 35.9270
0645 1400325927 33.9135
0646 1400328369 34.4412
0647 1400330810 35.4358
0648 1400333251 34.3301
0649 1400335693 34.1716
0650 1400338134 34.8426
0651 1400340576 34.3330
0652 1400343017 35.0350
0653 1400345458 36.9494
0654 1400347900 34.1302
0655 1400350341 34.2582
0656 1400352783 36.2292
0657 1400355224 34.7103
0658 1400357666 33.9921
0659 1400360107 33.8566
0660 1400362548 34.2840
0661 1400364990 33.8106
0662 1400367431 33.4503
0663 1400369873 33.4240
0664 1400372314 33.4808
0665 1400374755 34.2832
0666 1400377197 34.0242
0667 1400379638 33.9839
0668 1400382080 33.7425
0669 1400384521 33.9784
0670 1400386962 36.5628
0671 1400389404 35.2742
0672 1400391845 34.3015
0673 1400394287 33.4154
0674 1400396728 33.4001
0675 1400399169 33.9416
0676 1400401611 33.2248
0677 1400404052 33.6402
0678 1400406494 34.5103
0679 1400408935 33.1243
0680 1400411376 33.8900
0681 1400413818 37.6066
0682 1400416259 34.1881
0683 1400418701 33.1112
0684 1400421142 33.0567
0685 1400423583 33.1143
0686 1400426025 32.8977
0687 1400428466 33.3161
0688 1400430908 33.3083
0689 1400433349 32.6433
0690 1400435791 32.8423
0691 1400438232 32.8968
0692 1400440673 32.6824
0693 1400443115 33.3712
0694 1400445556 33.2197
0695 1400447998 32.6600
0696 1400450439 32.7747
0697 1400452880 33.5009
0698 1400455322 33.1310
0699 1400457763 33.5090
0700 1400460205 32.9717
0701 1400462646 32.8629
0702 1400465087 35.0759
0703 1400467529 34.9820
0704 1400469970 32.9807
0705 1400472412 33.8824
0706 1400474853 36.3677
0707 1400477294 33.1619
0708 1400479736 32.4588
0709 1400482177 33.2660
0710 1400484619 33.0737
0711 1400487060 33.1536
0712 1400489501 33.7182
0713 1400491943 32.8570
0714 1400494384 33.1875
0715 1400496826 34.7273
0716 1400499267 33.3386
0717 1400501708 32.5703
0718 1400504150 33.5916
0719 1400506591 32.9486
0720 1400509033 32.7552
0721 1400511474 33.2063
0722 1400513916 33.0797
0723 1400516357 33.0941
0724 1400518798 33.9548
0725 1400521240 33.9108
0726 1400523681 33.2352
0727 1400526123 35.9863
0728 1400528564 33.7637
0729 1400531005 32.9506
0730 1400533447 34.4317
0731 1400535888 35.5607
0732 1400538330 33.7532
0733 1400540771 33.9995
0734 1400543212 34.4947
0735 1400545654 33.1204
0736 1400548095 33.3355
0737 1400550537 33.9743
0738 1400552978 33.4451
0739 1400555419 33.5419
0740 1400557861 34.8080
0741 1400560302 34.2178
0742 1400562744 33.2419
0743 1400565185 33.6190
0744 1400567626 33.2291
0745 1400570068 33.4956
0746 1400572509 33.9543
0747 1400574951 33.0907
0748 1400577392 33.2242
0749 1400579833 33.8778
0750 1400582275 33.8125
0751 1400584716 34.2106
0752 1400587158 38.4605
0753 1400589599 35.1141
0754 1400592041 33.0144
0755 1400594482 35.8877
0756 1400596923 37.8382
0757 1400599365 34.2615
0758 1400601806 33.7589
0759 1400604248 33.6333
0760 1400606689 33.2667
0761 1400609130 34.5279
0762 1400611572 34.3292
0763 1400614013 33.3127
0764 1400616455 33.3701
0765 1400618896 34.1875
0766 1400621337 33.6069
0767 1400623779 33.8329
0768 1400626220 34.6470
0769 1400628662 33.7027
0770 1400631103 33.8551
0771 1400633544 33.8659
0772 1400635986 33.6750
0773 1400638427 34.1752
0774 1400640869 36.2632
0775 1400643310 34.4338
0776 1400645751 34.6574
0777 1400648193 36.3700
0778 1400650634 34.0590
0779 1400653076 33.9352
0780 1400655517 34.5791
0781 1400657958 35.2537
0782 1400660400 33.9365
0783 1400662841 34.5314
0784 1400665283 34.0079
0785 1400667724 33.8134
0786 1400670166 33.9621
0787 1400672607 37.6950
0788 1400675048 44.1384
0789 1400677490 35.5504
0790 1400679931 34.6140
0791 1400682373 33.7678
0792 1400684814 34.2279
0793 1400687255 35.5881
0794 1400689697 34.3078
0795 1400692138 34.7418
0796 1400694580 34.8190
0797 1400697021 33.6628
0798 1400699462 33.7769
0799 1400701904 34.1821
0800 1400704345 33.5595
0801 1400706787 34.4586
0802 1400709228 34.8395
0803 1400711669 33.8591
0804 1400714111 34.1570
0805 1400716552 37.1783
0806 1400718994 35.3991
0807 1400721435 33.6743
0808 1400723876 34.9386
0809 1400726318 34.0607
0810 1400728759 33.7993
0811 1400731201 33.7191
0812 1400733642 33.4368
0813 1400736083 33.5811
0814 1400738525 34.3029
0815 1400740966 34.0733
0816 1400743408 33.2569
0817 1400745849 33.7776
0818 1400748291 33.8903
0819 1400750732 33.3314
0820 1400753173 34.0595
0821 1400755615 33.6158
0822 1400758056 32.9840
0823 1400760498 33.0324
0824 1400762939 33.4649
0825 1400765380 33.1244
0826 1400767822 34.7728
0827 1400770263 34.2669
0828 1400772705 32.8209
0829 1400775146 33.1472
0830 1400777587 35.6861
0831 1400780029 34.0154
0832 1400782470 32.3567
0833 1400784912 33.2459
0834 1400787353 33.7070
0835 1400789794 32.7924
0836 1400792236 33.0614
0837 1400794677 32.9234
0838 1400797119 32.5271
0839 1400799560 32.9245
0840 1400802001 32.4879
0841 1400804443 31.9469
0842 1400806884 32.2705
0843 1400809326 32.3169
0844 1400811767 31.9218
0845 1400814208 32.8106
0846 1400816650 32.2987
0847 1400819091 31.8741
0848 1400821533 34.7652
0849 1400823974 36.6558
0850 1400826416 31.5452
0851 1400828857 32.6010
0852 1400831298 31.8780
0853 1400833740 31.2593
0854 1400836181 31.5652
0855 1400838623 32.9142
0856 1400841064 30.9929
0857 1400843505 30.9809
0858 1400845947 31.3345
0859 1400848388 30.3484
0860 1400850830 30.0787
0861 1400853271 30.9655
0862 1400855712 30.5626
0863 1400858154 30.3920
0864 1400860595 30.2360
0865 1400863037 30.0723
0866 1400865478 29.8562
0867 1400867919 30.2666
0868 1400870361 29.3480
0869 1400872802 29.1093
0870 1400875244 29.4493
0871 1400877685 29.5711
0872 1400880126 29.1049
0873 1400882568 29.3941
0874 1400885009 29.6921
0875 1400887451 31.4560
0876 1400889892 29.6858
0877 1400892333 28.9662
0878 1400894775 28.1831
0879 1400897216 28.9996
0880 1400899658 30.7655
0881 1400902099 27.8537
0882 1400904541 27.7382
0883 1400906982 27.8064
0884 1400909423 27.3456
0885 1400911865 27.4247
0886 1400914306 27.1510
0887 1400916748 26.5009
0888 1400919189 26.6220
0889 1400921630 26.9795
0890 1400924072 26.4071
0891 1400926513 26.1520
0892 1400928955 26.9863
0893 1400931396 26.0284
0894 1400933837 25.6180
0895 1400936279 25.5602
0896 1400938720 25.2030
0897 1400941162 25.0596
0898 1400943603 25.5757
0899 1400946044 25.4242
0900 1400948486 25.3717
0901 1400950927 25.5061
0902 1400953369 24.8078
0903 1400955810 24.0063
0904 1400958251 24.8817
0905 1400960693 25.6902
0906 1400963134 23.4125
0907 1400965576 23.4780
0908 1400968017 23.6431
0909 1400970458 22.8605
0910 1400972900 23.0307
0911 1400975341 23.1042
0912 1400977783 22.5568
0913 1400980224 22.5294
0914 1400982666 21.8539
0915 1400985107 21.5176
0916 1400987548 21.6003
0917 1400989990 21.4769
0918 1400992431 20.9844
0919 1400994873 20.9963
0920 1400997314 20.9594
0921 1400999755 20.6198
0922 1401002197 20.4982
0923 1401004638 20.3115
0924 1401007080 19.8381
0925 1401009521 20.3471
0926 1401011962 20.9687
0927 1401014404 19.6479
0928 1401016845 19.2934
0929 1401019287 20.3358
0930 1401021728 20.2306
0931 1401024169 18.9178
0932 1401026611 18.8600
0933 1401029052 18.5677
0934 1401031494 17.9282
0935 1401033935 17.6021
0936 1401036376 17.5818
0937 1401038818 17.3623
0938 1401041259 17.4547
0939 1401043701 17.6576
0940 1401046142 16.8520
0941 1401048583 16.7124
0942 1401051025 16.3186
0943 1401053466 16.4285
0944 1401055908 16.3883
0945 1401058349 16.1112
0946 1401060791 15.5722
0947 1401063232 15.6998
0948 1401065673 15.8667
0949 1401068115 15.2914
0950 1401070556 15.1548
0951 1401072998 15.2722
0952 1401075439 14.7205
0953 1401077880 14.3031
0954 1401080322 15.3627
0955 1401082763 14.7016
0956 1401085205 14.0473
0957 1401087646 14.9454
0958 1401090087 13.7407
0959 1401092529 13.3779
0960 1401094970 13.3968
0961 1401097412 13.1494
0962 1401099853 12.7504
0963 1401102294 12.7822
0964 1401104736 12.6203
0965 1401107177 12.4314
0966 1401109619 12.3975
0967 1401112060 12.2758
0968 1401114501 11.8685
0969 1401116943 11.9020
0970 1401119384 11.5708
0971 1401121826 11.5521
0972 1401124267 11.6729
0973 1401126708 11.7352
0974 1401129150 11.4509
0975 1401131591 11.3172
0976 1401134033 11.6346
0977 1401136474 10.6119
0978 1401138916 10.4580
0979 1401141357 10.7766
0980 1401143798 10.3181
0981 1401146240 10.2062
0982 1401148681 10.3346
0983 1401151123 9.9510
0984 1401153564 9.6833
0985 1401156005 9.5974
0986 1401158447 9.5248
0987 1401160888 9.3115
0988 1401163330 9.3629
0989 1401165771 9.1347
0990 1401168212 9.0038
0991 1401170654 9.0136
0992 1401173095 9.0101
0993 1401175537 8.8482
0994 1401177978 8.7606
0995 1401180419 8.6046
0996 1401182861 8.3638
0997 1401185302 8.4579
0998 1401187744 8.7039
0999 1401190185 8.3567
1000 1401192626 8.1824
1001 1401195068 8.2306
1002 1401197509 8.7837
1003 1401199951 9.0028
1004 1401202392 8.5300
1005 1401204833 7.8503
1006 1401207275 7.6178
1007 1401209716 7.6686
1008 1401212158 7.6732
1009 1401214599 7.8895
1010 1401217041 7.4825
1011 1401219482 7.3121
1012 1401221923 7.3740
1013 1401224365 7.3568
1014 1401226806 7.3095
1015 1401229248 7.1401
1016 1401231689 7.1325
1017 1401234130 7.1361
1018 1401236572 7.0656
1019 1401239013 7.0282
1020 1401241455 7.0733
1021 1401243896 7.1636
1022 1401246337 7.1310
1023 1401248779 7.2586
