# File: 20-05-31T223914.hot
# NOTEA     = None Attached.  RTLSDR Dongle Test
# NOTEB     = Spectral Integration
# OBSERVER  = Science Aficionado
# DEVICE    = rtlsdr=0
# DATADIR   = ../data/
# SITE      = None Attached.  RTLSDR Dongle Test
# CITY      = Green Bank
# REGION    = West Virginia
# COUNTRY   = US
# TELTYPE   = Bubble Wrap  Horn
# FRAME     = TOPO
# GAIN1     = 49.0
# GAIN2     = 11.0
# GAIN3     = 11.0
# GAIN4     = 0.0
# Count     = 10000
# CenterFreq= 1400000000.0
# Bandwidth = 2500000.0
# Duration  = 41.721066
# DeltaX    = 5859.375
# TSYS      = 200.0
# TRX       = 100.0
# TRMS      = 2.0
# TINT      = 1.0
# KPERC     = 100.0
# GAINFACT  = 1.0
# BUNIT     = Counts
# NCHAN     = 1024
# NSPEC     = 1
# NTIME     = 0
# NSAMPLES  = 0
# EPEAK     = 4.10875183718
# ERMS      = 0.995973393526
# EMJD      = 58568.808999981004 
# REFCHAN   = 512.0
# REFSAMPL  = 256.0
# NAVE      = 100
# NMEDIAN   = 1024
# Fft_rate  = 5000
# UTC       = 2020-05-31 22:39:14.547488
# SECONDS   =       0.0000000000 
# LST       = 09:59:24.310
# AZ        = 180.0
# EL        = -90.0
# TELLON    = -79:50:22.920
# TELLAT    = +38:25:59.160
# RA        = 21:56:57.680
# DEC       = -38:37:48.700
# GALLON    = 04:00:44.60
# GALLAT    = -51:59:52.30
# ALT_SUN   = +20:43:51.8
# AZ_SUN    = +282:18:39.8
# ETAA      = 0.8
# ETAB      = 0.99
# POLANGLE  = 0.0
# TELSIZEAM = 1.0
# TELSIZEBM = 1.0
# AST_VERS  = 05.01
0000 1398751220 6.5995
0001 1398753662 6.5321
0002 1398756103 6.6528
0003 1398758544 6.7024
0004 1398760986 6.6487
0005 1398763427 6.5621
0006 1398765869 6.7295
0007 1398768310 6.6872
0008 1398770751 6.5845
0009 1398773193 6.7437
0010 1398775634 6.7410
0011 1398778076 6.7992
0012 1398780517 6.7835
0013 1398782958 6.8250
0014 1398785400 6.8276
0015 1398787841 7.3295
0016 1398790283 7.0441
0017 1398792724 6.9588
0018 1398795166 7.0612
0019 1398797607 7.8114
0020 1398800048 7.8835
0021 1398802490 7.3248
0022 1398804931 7.2135
0023 1398807373 7.2433
0024 1398809814 7.3837
0025 1398812255 7.4946
0026 1398814697 7.5740
0027 1398817138 7.6315
0028 1398819580 7.6229
0029 1398822021 7.7654
0030 1398824462 7.7948
0031 1398826904 7.9139
0032 1398829345 8.0119
0033 1398831787 8.0214
0034 1398834228 8.1241
0035 1398836669 8.3009
0036 1398839111 8.4229
0037 1398841552 8.4414
0038 1398843994 8.6496
0039 1398846435 8.5784
0040 1398848876 8.8158
0041 1398851318 8.8939
0042 1398853759 8.9861
0043 1398856201 9.0539
0044 1398858642 9.1955
0045 1398861083 9.3148
0046 1398863525 9.3697
0047 1398865966 9.6277
0048 1398868408 9.7284
0049 1398870849 9.8363
0050 1398873291 9.9776
0051 1398875732 10.1146
0052 1398878173 10.1995
0053 1398880615 10.3435
0054 1398883056 10.4836
0055 1398885498 10.7612
0056 1398887939 11.1559
0057 1398890380 11.0180
0058 1398892822 11.0501
0059 1398895263 11.3213
0060 1398897705 11.3957
0061 1398900146 11.4571
0062 1398902587 11.5625
0063 1398905029 11.7896
0064 1398907470 11.9650
0065 1398909912 12.0787
0066 1398912353 12.3571
0067 1398914794 12.5143
0068 1398917236 12.5211
0069 1398919677 12.6940
0070 1398922119 12.8979
0071 1398924560 13.0371
0072 1398927001 13.0948
0073 1398929443 13.3643
0074 1398931884 13.4462
0075 1398934326 13.7148
0076 1398936767 13.7590
0077 1398939208 14.0406
0078 1398941650 14.2400
0079 1398944091 14.3929
0080 1398946533 14.5010
0081 1398948974 14.5471
0082 1398951416 14.9264
0083 1398953857 15.1152
0084 1398956298 15.0801
0085 1398958740 15.4446
0086 1398961181 15.7048
0087 1398963623 15.8897
0088 1398966064 15.9557
0089 1398968505 16.0957
0090 1398970947 16.3100
0091 1398973388 16.8181
0092 1398975830 16.6466
0093 1398978271 16.7111
0094 1398980712 16.8035
0095 1398983154 17.1153
0096 1398985595 17.8980
0097 1398988037 18.9260
0098 1398990478 17.7707
0099 1398992919 17.8229
0100 1398995361 18.2025
0101 1398997802 18.0638
0102 1399000244 18.2979
0103 1399002685 19.2727
0104 1399005126 21.3296
0105 1399007568 24.7178
0106 1399010009 24.6340
0107 1399012451 21.6602
0108 1399014892 19.8905
0109 1399017333 19.8134
0110 1399019775 19.8667
0111 1399022216 19.8574
0112 1399024658 20.0316
0113 1399027099 20.2722
0114 1399029541 20.5516
0115 1399031982 20.6519
0116 1399034423 20.8073
0117 1399036865 20.6087
0118 1399039306 20.9403
0119 1399041748 21.1671
0120 1399044189 21.3873
0121 1399046630 21.7407
0122 1399049072 22.0424
0123 1399051513 21.9724
0124 1399053955 22.0842
0125 1399056396 22.1169
0126 1399058837 22.0905
0127 1399061279 22.7798
0128 1399063720 23.0268
0129 1399066162 22.9441
0130 1399068603 23.0665
0131 1399071044 23.0441
0132 1399073486 23.2601
0133 1399075927 23.3228
0134 1399078369 23.6352
0135 1399080810 23.8215
0136 1399083251 23.9461
0137 1399085693 24.4417
0138 1399088134 24.7878
0139 1399090576 24.4469
0140 1399093017 24.7105
0141 1399095458 24.6820
0142 1399097900 24.7256
0143 1399100341 24.8825
0144 1399102783 25.2897
0145 1399105224 25.1276
0146 1399107666 25.1733
0147 1399110107 25.4232
0148 1399112548 25.5488
0149 1399114990 25.6850
0150 1399117431 25.8528
0151 1399119873 26.0904
0152 1399122314 26.4018
0153 1399124755 26.3497
0154 1399127197 26.6048
0155 1399129638 26.5537
0156 1399132080 26.3602
0157 1399134521 26.8336
0158 1399136962 27.2514
0159 1399139404 26.9412
0160 1399141845 27.4295
0161 1399144287 27.3270
0162 1399146728 27.5091
0163 1399149169 27.5019
0164 1399151611 27.5390
0165 1399154052 28.1574
0166 1399156494 27.7640
0167 1399158935 28.1094
0168 1399161376 27.8825
0169 1399163818 28.1990
0170 1399166259 28.3311
0171 1399168701 28.3548
0172 1399171142 28.3361
0173 1399173583 28.2896
0174 1399176025 28.5762
0175 1399178466 28.6791
0176 1399180908 28.8107
0177 1399183349 28.8097
0178 1399185791 29.6158
0179 1399188232 29.9453
0180 1399190673 29.4054
0181 1399193115 29.4777
0182 1399195556 28.8469
0183 1399197998 29.7212
0184 1399200439 29.9508
0185 1399202880 29.4896
0186 1399205322 29.5013
0187 1399207763 29.5913
0188 1399210205 29.8699
0189 1399212646 29.7730
0190 1399215087 29.6673
0191 1399217529 29.8479
0192 1399219970 30.0019
0193 1399222412 30.2855
0194 1399224853 30.0205
0195 1399227294 30.0006
0196 1399229736 30.1671
0197 1399232177 30.2706
0198 1399234619 30.2722
0199 1399237060 30.3402
0200 1399239501 30.2951
0201 1399241943 30.4051
0202 1399244384 30.6253
0203 1399246826 30.3716
0204 1399249267 30.5364
0205 1399251708 30.2617
0206 1399254150 30.7536
0207 1399256591 30.7233
0208 1399259033 31.1266
0209 1399261474 30.8689
0210 1399263916 30.4030
0211 1399266357 30.4377
0212 1399268798 30.7211
0213 1399271240 30.7347
0214 1399273681 30.7997
0215 1399276123 30.7633
0216 1399278564 30.8688
0217 1399281005 30.9707
0218 1399283447 30.9456
0219 1399285888 31.9973
0220 1399288330 33.4815
0221 1399290771 30.8695
0222 1399293212 30.8595
0223 1399295654 31.4165
0224 1399298095 31.4323
0225 1399300537 31.3360
0226 1399302978 30.9250
0227 1399305419 31.2995
0228 1399307861 31.0528
0229 1399310302 30.8953
0230 1399312744 31.3289
0231 1399315185 31.4986
0232 1399317626 30.9635
0233 1399320068 31.4495
0234 1399322509 31.2204
0235 1399324951 30.8812
0236 1399327392 31.0421
0237 1399329833 32.3645
0238 1399332275 31.6781
0239 1399334716 31.1023
0240 1399337158 31.4867
0241 1399339599 31.3162
0242 1399342041 31.3622
0243 1399344482 30.8486
0244 1399346923 31.0583
0245 1399349365 31.2275
0246 1399351806 31.2962
0247 1399354248 30.8142
0248 1399356689 30.7733
0249 1399359130 30.9238
0250 1399361572 30.9570
0251 1399364013 31.3443
0252 1399366455 31.1921
0253 1399368896 30.9955
0254 1399371337 30.9540
0255 1399373779 31.1492
0256 1399376220 31.1924
0257 1399378662 30.7948
0258 1399381103 31.2823
0259 1399383544 31.0241
0260 1399385986 31.1600
0261 1399388427 31.4567
0262 1399390869 32.2467
0263 1399393310 32.8293
0264 1399395751 32.3411
0265 1399398193 31.2240
0266 1399400634 30.9342
0267 1399403076 30.7001
0268 1399405517 30.9213
0269 1399407958 30.5866
0270 1399410400 30.7043
0271 1399412841 30.9794
0272 1399415283 30.8566
0273 1399417724 30.9287
0274 1399420166 30.8351
0275 1399422607 30.9532
0276 1399425048 30.6980
0277 1399427490 30.8610
0278 1399429931 30.3756
0279 1399432373 30.8526
0280 1399434814 30.8908
0281 1399437255 30.5961
0282 1399439697 30.6201
0283 1399442138 31.0737
0284 1399444580 30.4988
0285 1399447021 30.1339
0286 1399449462 30.5294
0287 1399451904 30.8413
0288 1399454345 30.2359
0289 1399456787 30.5725
0290 1399459228 30.1654
0291 1399461669 30.3290
0292 1399464111 30.6926
0293 1399466552 30.3921
0294 1399468994 30.7360
0295 1399471435 30.3244
0296 1399473876 30.7324
0297 1399476318 30.2750
0298 1399478759 30.2234
0299 1399481201 30.4531
0300 1399483642 30.5502
0301 1399486083 31.1533
0302 1399488525 31.6667
0303 1399490966 30.4820
0304 1399493408 30.4558
0305 1399495849 30.6815
0306 1399498291 30.5708
0307 1399500732 30.7810
0308 1399503173 31.0581
0309 1399505615 30.5197
0310 1399508056 30.6057
0311 1399510498 30.4484
0312 1399512939 30.4588
0313 1399515380 30.6090
0314 1399517822 30.6062
0315 1399520263 30.5648
0316 1399522705 30.3583
0317 1399525146 30.6030
0318 1399527587 30.4463
0319 1399530029 30.2876
0320 1399532470 30.4072
0321 1399534912 30.5381
0322 1399537353 30.3905
0323 1399539794 30.5700
0324 1399542236 30.4066
0325 1399544677 30.6703
0326 1399547119 30.6708
0327 1399549560 30.3001
0328 1399552001 30.6202
0329 1399554443 30.7916
0330 1399556884 30.6873
0331 1399559326 30.6151
0332 1399561767 30.9405
0333 1399564208 31.2265
0334 1399566650 30.5050
0335 1399569091 30.6777
0336 1399571533 31.0233
0337 1399573974 30.4344
0338 1399576416 30.6964
0339 1399578857 30.8566
0340 1399581298 30.8365
0341 1399583740 30.9019
0342 1399586181 32.4448
0343 1399588623 32.3092
0344 1399591064 31.1204
0345 1399593505 30.9242
0346 1399595947 30.8336
0347 1399598388 30.7947
0348 1399600830 30.8052
0349 1399603271 30.8524
0350 1399605712 30.9380
0351 1399608154 31.1960
0352 1399610595 31.0329
0353 1399613037 31.2173
0354 1399615478 31.6994
0355 1399617919 31.2427
0356 1399620361 31.3381
0357 1399622802 31.9928
0358 1399625244 31.6436
0359 1399627685 31.5325
0360 1399630126 31.5723
0361 1399632568 32.0284
0362 1399635009 32.1005
0363 1399637451 32.1264
0364 1399639892 31.7721
0365 1399642333 31.6394
0366 1399644775 31.6894
0367 1399647216 31.5315
0368 1399649658 31.7782
0369 1399652099 32.0225
0370 1399654541 31.7470
0371 1399656982 31.7191
0372 1399659423 31.6069
0373 1399661865 31.7264
0374 1399664306 31.6644
0375 1399666748 31.7008
0376 1399669189 32.3091
0377 1399671630 32.0806
0378 1399674072 31.8539
0379 1399676513 32.3250
0380 1399678955 32.3052
0381 1399681396 32.4973
0382 1399683837 32.3131
0383 1399686279 32.1650
0384 1399688720 32.3373
0385 1399691162 32.2832
0386 1399693603 32.3375
0387 1399696044 32.4148
0388 1399698486 32.4161
0389 1399700927 32.6289
0390 1399703369 32.6007
0391 1399705810 32.4841
0392 1399708251 32.5434
0393 1399710693 32.6159
0394 1399713134 32.9803
0395 1399715576 33.0373
0396 1399718017 32.8639
0397 1399720458 33.8207
0398 1399722900 33.4918
0399 1399725341 32.8696
0400 1399727783 33.4895
0401 1399730224 33.1079
0402 1399732666 32.6715
0403 1399735107 33.2034
0404 1399737548 33.2652
0405 1399739990 33.2292
0406 1399742431 33.2788
0407 1399744873 33.8462
0408 1399747314 33.8247
0409 1399749755 34.0008
0410 1399752197 34.1003
0411 1399754638 33.9152
0412 1399757080 33.9030
0413 1399759521 34.1748
0414 1399761962 34.0019
0415 1399764404 33.8680
0416 1399766845 34.0008
0417 1399769287 34.2041
0418 1399771728 33.9809
0419 1399774169 34.0493
0420 1399776611 34.6740
0421 1399779052 34.5218
0422 1399781494 34.3580
0423 1399783935 34.4156
0424 1399786376 36.0032
0425 1399788818 35.8917
0426 1399791259 34.9029
0427 1399793701 34.7492
0428 1399796142 34.5427
0429 1399798583 34.8297
0430 1399801025 34.9532
0431 1399803466 34.9547
0432 1399805908 35.2869
0433 1399808349 35.3401
0434 1399810791 34.9579
0435 1399813232 35.4670
0436 1399815673 35.2697
0437 1399818115 35.2978
0438 1399820556 35.6028
0439 1399822998 35.4897
0440 1399825439 35.4884
0441 1399827880 35.2460
0442 1399830322 35.8309
0443 1399832763 35.9543
0444 1399835205 35.4731
0445 1399837646 35.9024
0446 1399840087 36.4642
0447 1399842529 36.2161
0448 1399844970 36.5329
0449 1399847412 36.0278
0450 1399849853 35.9223
0451 1399852294 35.9832
0452 1399854736 36.1867
0453 1399857177 36.2235
0454 1399859619 36.3593
0455 1399862060 36.3220
0456 1399864501 36.4981
0457 1399866943 36.6815
0458 1399869384 36.5471
0459 1399871826 36.7324
0460 1399874267 36.6707
0461 1399876708 36.3346
0462 1399879150 36.1984
0463 1399881591 36.6647
0464 1399884033 37.1798
0465 1399886474 37.8205
0466 1399888916 37.7132
0467 1399891357 36.3176
0468 1399893798 36.6807
0469 1399896240 37.7211
0470 1399898681 37.4502
0471 1399901123 37.3925
0472 1399903564 37.3178
0473 1399906005 37.2111
0474 1399908447 37.4329
0475 1399910888 37.2333
0476 1399913330 37.8804
0477 1399915771 37.8418
0478 1399918212 37.4833
0479 1399920654 37.4432
0480 1399923095 37.3580
0481 1399925537 37.2360
0482 1399927978 37.8158
0483 1399930419 39.4390
0484 1399932861 38.9157
0485 1399935302 38.7418
0486 1399937744 38.0685
0487 1399940185 37.8462
0488 1399942626 38.2011
0489 1399945068 37.9946
0490 1399947509 38.1490
0491 1399949951 38.2509
0492 1399952392 38.2137
0493 1399954833 38.2602
0494 1399957275 38.1184
0495 1399959716 38.3993
0496 1399962158 38.7341
0497 1399964599 38.4920
0498 1399967041 38.7206
0499 1399969482 38.4588
0500 1399971923 38.3612
0501 1399974365 42.3559
0502 1399976806 41.4291
0503 1399979248 39.5023
0504 1399981689 44.0137
0505 1399984130 42.1600
0506 1399986572 70.9722
0507 1399989013 88.4142
0508 1399991455 44.1528
0509 1399993896 42.2426
0510 1399996337 80.9889
0511 1399998779 265.4852
0512 1400001220 79.0880
0513 1400003662 44.2137
0514 1400006103 41.7944
0515 1400008544 42.5197
0516 1400010986 53.1235
0517 1400013427 47.6699
0518 1400015869 46.9817
0519 1400018310 39.3557
0520 1400020751 39.3170
0521 1400023193 39.3892
0522 1400025634 38.8996
0523 1400028076 38.4608
0524 1400030517 38.8587
0525 1400032958 38.4277
0526 1400035400 38.4004
0527 1400037841 38.8274
0528 1400040283 38.8688
0529 1400042724 38.4077
0530 1400045166 37.8222
0531 1400047607 38.6088
0532 1400050048 38.7940
0533 1400052490 37.8544
0534 1400054931 37.8126
0535 1400057373 38.1333
0536 1400059814 38.1908
0537 1400062255 37.9889
0538 1400064697 37.5328
0539 1400067138 37.8469
0540 1400069580 37.7337
0541 1400072021 37.8741
0542 1400074462 37.9929
0543 1400076904 37.6082
0544 1400079345 37.4804
0545 1400081787 37.3531
0546 1400084228 37.6711
0547 1400086669 40.7990
0548 1400089111 38.7810
0549 1400091552 37.3649
0550 1400093994 36.9015
0551 1400096435 37.5568
0552 1400098876 37.0958
0553 1400101318 37.3369
0554 1400103759 37.1631
0555 1400106201 37.3049
0556 1400108642 38.6837
0557 1400111083 38.4748
0558 1400113525 37.4898
0559 1400115966 37.1516
0560 1400118408 36.7408
0561 1400120849 36.8676
0562 1400123291 36.5609
0563 1400125732 36.8412
0564 1400128173 36.6364
0565 1400130615 36.5335
0566 1400133056 36.3620
0567 1400135498 36.7439
0568 1400137939 36.3299
0569 1400140380 36.2809
0570 1400142822 36.2337
0571 1400145263 36.1542
0572 1400147705 36.2281
0573 1400150146 36.0045
0574 1400152587 36.0336
0575 1400155029 35.9991
0576 1400157470 35.8626
0577 1400159912 35.8440
0578 1400162353 37.5244
0579 1400164794 35.9972
0580 1400167236 35.4531
0581 1400169677 36.2573
0582 1400172119 35.8412
0583 1400174560 35.5192
0584 1400177001 35.3926
0585 1400179443 35.5170
0586 1400181884 35.4240
0587 1400184326 35.2922
0588 1400186767 36.0254
0589 1400189208 35.3503
0590 1400191650 35.2625
0591 1400194091 35.5134
0592 1400196533 35.2172
0593 1400198974 34.9567
0594 1400201416 35.2587
0595 1400203857 34.8918
0596 1400206298 35.1499
0597 1400208740 35.2410
0598 1400211181 34.9781
0599 1400213623 34.8066
0600 1400216064 34.5833
0601 1400218505 34.7600
0602 1400220947 34.4470
0603 1400223388 34.7176
0604 1400225830 34.6045
0605 1400228271 34.2157
0606 1400230712 34.5572
0607 1400233154 34.1925
0608 1400235595 34.0075
0609 1400238037 34.1702
0610 1400240478 33.8445
0611 1400242919 33.8857
0612 1400245361 33.7088
0613 1400247802 33.5017
0614 1400250244 33.8107
0615 1400252685 34.3109
0616 1400255126 33.8194
0617 1400257568 33.8803
0618 1400260009 33.8499
0619 1400262451 33.7400
0620 1400264892 33.5776
0621 1400267333 33.4659
0622 1400269775 33.5151
0623 1400272216 33.5722
0624 1400274658 33.5495
0625 1400277099 33.4661
0626 1400279541 33.1359
0627 1400281982 33.5431
0628 1400284423 33.4708
0629 1400286865 34.0005
0630 1400289306 33.4178
0631 1400291748 33.6628
0632 1400294189 32.9808
0633 1400296630 32.6299
0634 1400299072 32.4467
0635 1400301513 33.1486
0636 1400303955 33.8234
0637 1400306396 33.1779
0638 1400308837 32.5549
0639 1400311279 32.3821
0640 1400313720 32.4691
0641 1400316162 32.5342
0642 1400318603 32.7648
0643 1400321044 32.2808
0644 1400323486 32.1828
0645 1400325927 32.0474
0646 1400328369 32.4264
0647 1400330810 32.4177
0648 1400333251 32.1145
0649 1400335693 32.0795
0650 1400338134 32.1537
0651 1400340576 32.3529
0652 1400343017 32.5618
0653 1400345458 32.6693
0654 1400347900 32.1137
0655 1400350341 32.3145
0656 1400352783 31.9941
0657 1400355224 32.0195
0658 1400357666 31.9651
0659 1400360107 31.8990
0660 1400362548 31.8643
0661 1400364990 31.9421
0662 1400367431 31.7768
0663 1400369873 31.5900
0664 1400372314 31.9042
0665 1400374755 31.3132
0666 1400377197 31.3983
0667 1400379638 31.5057
0668 1400382080 31.3292
0669 1400384521 31.7558
0670 1400386962 33.5475
0671 1400389404 32.3207
0672 1400391845 31.7473
0673 1400394287 31.4138
0674 1400396728 31.1631
0675 1400399169 31.8351
0676 1400401611 31.6827
0677 1400404052 31.6312
0678 1400406494 31.5238
0679 1400408935 31.5216
0680 1400411376 31.4062
0681 1400413818 31.5475
0682 1400416259 30.9914
0683 1400418701 30.9395
0684 1400421142 31.1565
0685 1400423583 31.2987
0686 1400426025 31.2058
0687 1400428466 31.5688
0688 1400430908 30.9305
0689 1400433349 30.7175
0690 1400435791 30.9223
0691 1400438232 30.7603
0692 1400440673 30.8905
0693 1400443115 30.7478
0694 1400445556 30.7520
0695 1400447998 30.6265
0696 1400450439 30.8792
0697 1400452880 30.8580
0698 1400455322 30.9086
0699 1400457763 31.2353
0700 1400460205 30.8750
0701 1400462646 30.9985
0702 1400465087 31.5636
0703 1400467529 31.2984
0704 1400469970 30.9179
0705 1400472412 30.5824
0706 1400474853 30.8432
0707 1400477294 30.9261
0708 1400479736 30.7773
0709 1400482177 30.5940
0710 1400484619 30.6478
0711 1400487060 30.7703
0712 1400489501 30.9904
0713 1400491943 31.3097
0714 1400494384 36.2235
0715 1400496826 55.8103
0716 1400499267 46.7154
0717 1400501708 32.0589
0718 1400504150 31.0713
0719 1400506591 31.1412
0720 1400509033 30.9875
0721 1400511474 30.9477
0722 1400513916 30.4408
0723 1400516357 30.9139
0724 1400518798 31.0748
0725 1400521240 31.1850
0726 1400523681 30.6741
0727 1400526123 31.0348
0728 1400528564 31.2581
0729 1400531005 31.0887
0730 1400533447 31.1996
0731 1400535888 31.2658
0732 1400538330 31.2158
0733 1400540771 31.3100
0734 1400543212 31.0243
0735 1400545654 30.9258
0736 1400548095 31.1862
0737 1400550537 31.4342
0738 1400552978 31.2605
0739 1400555419 31.2127
0740 1400557861 31.8279
0741 1400560302 31.1675
0742 1400562744 31.0744
0743 1400565185 30.9973
0744 1400567626 31.0596
0745 1400570068 31.2569
0746 1400572509 30.9933
0747 1400574951 30.9329
0748 1400577392 30.9847
0749 1400579833 31.4111
0750 1400582275 31.2931
0751 1400584716 31.6031
0752 1400587158 33.3621
0753 1400589599 32.1445
0754 1400592041 31.2180
0755 1400594482 31.7984
0756 1400596923 32.1191
0757 1400599365 31.4162
0758 1400601806 31.1340
0759 1400604248 31.4955
0760 1400606689 31.3722
0761 1400609130 31.7369
0762 1400611572 31.4177
0763 1400614013 31.4380
0764 1400616455 31.6651
0765 1400618896 31.7255
0766 1400621337 31.6485
0767 1400623779 31.5722
0768 1400626220 31.5134
0769 1400628662 31.5437
0770 1400631103 31.7008
0771 1400633544 31.3628
0772 1400635986 31.3322
0773 1400638427 31.5933
0774 1400640869 31.8527
0775 1400643310 31.5441
0776 1400645751 31.8076
0777 1400648193 31.9430
0778 1400650634 31.3584
0779 1400653076 31.3122
0780 1400655517 31.6036
0781 1400657958 31.9354
0782 1400660400 31.4865
0783 1400662841 31.6598
0784 1400665283 31.6316
0785 1400667724 31.2360
0786 1400670166 31.7841
0787 1400672607 33.0779
0788 1400675048 35.0254
0789 1400677490 31.9567
0790 1400679931 32.0592
0791 1400682373 31.6441
0792 1400684814 31.6980
0793 1400687255 32.6529
0794 1400689697 31.7066
0795 1400692138 32.1283
0796 1400694580 32.3987
0797 1400697021 31.8697
0798 1400699462 31.3644
0799 1400701904 31.4302
0800 1400704345 31.2544
0801 1400706787 31.5280
0802 1400709228 31.7674
0803 1400711669 31.6779
0804 1400714111 31.5629
0805 1400716552 32.9319
0806 1400718994 32.2072
0807 1400721435 31.5420
0808 1400723876 31.4077
0809 1400726318 31.6458
0810 1400728759 31.9384
0811 1400731201 31.7761
0812 1400733642 31.4662
0813 1400736083 31.0028
0814 1400738525 31.4633
0815 1400740966 31.4730
0816 1400743408 31.2646
0817 1400745849 31.0862
0818 1400748291 31.2236
0819 1400750732 31.2953
0820 1400753173 31.0472
0821 1400755615 31.0289
0822 1400758056 31.3355
0823 1400760498 31.1241
0824 1400762939 30.8981
0825 1400765380 31.1265
0826 1400767822 31.5674
0827 1400770263 31.3544
0828 1400772705 30.8292
0829 1400775146 31.0274
0830 1400777587 31.9304
0831 1400780029 30.8826
0832 1400782470 30.8175
0833 1400784912 30.8901
0834 1400787353 31.1214
0835 1400789794 30.7999
0836 1400792236 30.4479
0837 1400794677 30.3471
0838 1400797119 30.2678
0839 1400799560 30.5637
0840 1400802001 30.1031
0841 1400804443 29.9440
0842 1400806884 29.9928
0843 1400809326 29.9655
0844 1400811767 30.2055
0845 1400814208 29.6957
0846 1400816650 29.6711
0847 1400819091 29.5717
0848 1400821533 33.1935
0849 1400823974 36.6216
0850 1400826416 29.5544
0851 1400828857 29.8084
0852 1400831298 29.5749
0853 1400833740 29.3367
0854 1400836181 29.0257
0855 1400838623 29.8949
0856 1400841064 29.0349
0857 1400843505 28.4543
0858 1400845947 28.7727
0859 1400848388 28.6064
0860 1400850830 28.5285
0861 1400853271 28.1502
0862 1400855712 28.0430
0863 1400858154 28.1165
0864 1400860595 27.9628
0865 1400863037 28.0022
0866 1400865478 27.8129
0867 1400867919 28.2703
0868 1400870361 27.6202
0869 1400872802 27.5639
0870 1400875244 27.5071
0871 1400877685 27.4105
0872 1400880126 27.2015
0873 1400882568 26.9787
0874 1400885009 27.4812
0875 1400887451 28.9915
0876 1400889892 27.6029
0877 1400892333 26.4958
0878 1400894775 26.3677
0879 1400897216 26.2360
0880 1400899658 26.6093
0881 1400902099 25.8271
0882 1400904541 25.7552
0883 1400906982 25.4288
0884 1400909423 25.4091
0885 1400911865 25.0907
0886 1400914306 25.0599
0887 1400916748 24.8256
0888 1400919189 25.0287
0889 1400921630 24.6356
0890 1400924072 24.5699
0891 1400926513 24.3456
0892 1400928955 24.7131
0893 1400931396 24.1840
0894 1400933837 23.8569
0895 1400936279 23.5084
0896 1400938720 23.2654
0897 1400941162 23.2825
0898 1400943603 23.3776
0899 1400946044 23.3196
0900 1400948486 23.0229
0901 1400950927 23.1414
0902 1400953369 22.5518
0903 1400955810 22.3489
0904 1400958251 22.3026
0905 1400960693 22.2881
0906 1400963134 21.9681
0907 1400965576 21.7479
0908 1400968017 21.4224
0909 1400970458 21.1643
0910 1400972900 21.2004
0911 1400975341 20.9134
0912 1400977783 20.7184
0913 1400980224 20.4912
0914 1400982666 20.3705
0915 1400985107 20.2996
0916 1400987548 20.0520
0917 1400989990 20.0113
0918 1400992431 19.7693
0919 1400994873 19.3857
0920 1400997314 19.3050
0921 1400999755 19.2250
0922 1401002197 18.7527
0923 1401004638 18.7269
0924 1401007080 18.4403
0925 1401009521 18.4596
0926 1401011962 18.5557
0927 1401014404 18.0818
0928 1401016845 17.8497
0929 1401019287 18.0653
0930 1401021728 17.7783
0931 1401024169 17.2893
0932 1401026611 17.0653
0933 1401029052 16.8845
0934 1401031494 16.7940
0935 1401033935 16.7110
0936 1401036376 16.3813
0937 1401038818 16.2439
0938 1401041259 16.1291
0939 1401043701 15.8361
0940 1401046142 15.7508
0941 1401048583 15.5455
0942 1401051025 15.2297
0943 1401053466 15.1660
0944 1401055908 15.0768
0945 1401058349 14.7807
0946 1401060791 14.5030
0947 1401063232 14.5129
0948 1401065673 14.4072
0949 1401068115 14.2122
0950 1401070556 14.0451
0951 1401072998 13.7320
0952 1401075439 13.5824
0953 1401077880 13.2941
0954 1401080322 13.3165
0955 1401082763 13.3188
0956 1401085205 13.1607
0957 1401087646 13.4892
0958 1401090087 12.6858
0959 1401092529 12.4430
0960 1401094970 12.1759
0961 1401097412 12.1072
0962 1401099853 11.9678
0963 1401102294 11.9751
0964 1401104736 11.7148
0965 1401107177 11.5733
0966 1401109619 11.4481
0967 1401112060 11.2688
0968 1401114501 11.1436
0969 1401116943 10.9927
0970 1401119384 10.8229
0971 1401121826 10.7660
0972 1401124267 10.6343
0973 1401126708 10.5060
0974 1401129150 10.3286
0975 1401131591 10.1300
0976 1401134033 10.2499
0977 1401136474 9.8869
0978 1401138916 9.7183
0979 1401141357 9.5698
0980 1401143798 9.3157
0981 1401146240 9.3910
0982 1401148681 9.3475
0983 1401151123 9.1786
0984 1401153564 9.0469
0985 1401156005 8.9163
0986 1401158447 8.8282
0987 1401160888 8.6491
0988 1401163330 8.5770
0989 1401165771 8.5213
0990 1401168212 8.3218
0991 1401170654 8.2563
0992 1401173095 8.2189
0993 1401175537 8.1490
0994 1401177978 8.0224
0995 1401180419 7.9495
0996 1401182861 7.8370
0997 1401185302 7.9074
0998 1401187744 8.2547
0999 1401190185 7.7637
1000 1401192626 7.5373
1001 1401195068 7.4993
1002 1401197509 8.1543
1003 1401199951 8.2818
1004 1401202392 7.4244
1005 1401204833 7.2183
1006 1401207275 7.1569
1007 1401209716 7.1099
1008 1401212158 7.0060
1009 1401214599 6.9960
1010 1401217041 6.9433
1011 1401219482 6.9006
1012 1401221923 6.8432
1013 1401224365 6.8502
1014 1401226806 6.7657
1015 1401229248 6.7114
1016 1401231689 6.7009
1017 1401234130 6.6917
1018 1401236572 6.6108
1019 1401239013 6.7288
1020 1401241455 6.7545
1021 1401243896 6.6494
1022 1401246337 6.6607
1023 1401248779 6.6775
