# File: 20-05-31T223443.hot
# NOTEA     = None Attached.  RTLSDR Dongle Test
# NOTEB     = Spectral Integration
# OBSERVER  = Science Aficionado
# DEVICE    = rtlsdr=0
# DATADIR   = ../data/
# SITE      = None Attached.  RTLSDR Dongle Test
# CITY      = Green Bank
# REGION    = West Virginia
# COUNTRY   = US
# TELTYPE   = Bubble Wrap  Horn
# FRAME     = TOPO
# GAIN1     = 49.0
# GAIN2     = 11.0
# GAIN3     = 11.0
# GAIN4     = 0.0
# Count     = 10000
# CenterFreq= 1400000000.0
# Bandwidth = 2500000.0
# Duration  = 41.954173
# DeltaX    = 5859.375
# TSYS      = 200.0
# TRX       = 100.0
# TRMS      = 2.0
# TINT      = 1.0
# KPERC     = 100.0
# GAINFACT  = 1.0
# BUNIT     = Counts
# NCHAN     = 1024
# NSPEC     = 1
# NTIME     = 0
# NSAMPLES  = 0
# EPEAK     = 4.10875183718
# ERMS      = 0.995973393526
# EMJD      = 58568.808999981004 
# REFCHAN   = 512.0
# REFSAMPL  = 256.0
# NAVE      = 100
# NMEDIAN   = 1024
# Fft_rate  = 5000
# UTC       = 2020-05-31 22:34:43.826336
# SECONDS   =       0.0000000000 
# LST       = 09:54:52.850
# AZ        = 180.0
# EL        = -90.0
# TELLON    = -79:50:22.920
# TELLAT    = +38:25:59.160
# RA        = 21:52:25.460
# DEC       = -38:37:40.400
# GALLON    = 04:06:46.30
# GALLAT    = -51:06:50.40
# ALT_SUN   = +21:35:35.6
# AZ_SUN    = +281:40:49.9
# ETAA      = 0.8
# ETAB      = 0.99
# POLANGLE  = 0.0
# TELSIZEAM = 1.0
# TELSIZEBM = 1.0
# AST_VERS  = 05.01
0000 1398751220 7.1027
0001 1398753662 7.0240
0002 1398756103 7.0649
0003 1398758544 6.9783
0004 1398760986 7.0861
0005 1398763427 7.3025
0006 1398765869 7.0272
0007 1398768310 7.0631
0008 1398770751 6.9720
0009 1398773193 7.1794
0010 1398775634 7.5006
0011 1398778076 7.1988
0012 1398780517 7.1190
0013 1398782958 7.1610
0014 1398785400 7.2520
0015 1398787841 7.6073
0016 1398790283 7.3143
0017 1398792724 7.3508
0018 1398795166 7.3877
0019 1398797607 8.3381
0020 1398800048 8.4180
0021 1398802490 7.6734
0022 1398804931 7.6181
0023 1398807373 7.6504
0024 1398809814 7.7038
0025 1398812255 7.7742
0026 1398814697 7.8703
0027 1398817138 7.7990
0028 1398819580 7.8525
0029 1398822021 8.1098
0030 1398824462 8.1098
0031 1398826904 8.2625
0032 1398829345 8.3125
0033 1398831787 8.2642
0034 1398834228 8.7807
0035 1398836669 9.1788
0036 1398839111 8.6362
0037 1398841552 8.7400
0038 1398843994 8.9560
0039 1398846435 8.9724
0040 1398848876 9.0636
0041 1398851318 9.2172
0042 1398853759 9.2572
0043 1398856201 9.5068
0044 1398858642 9.6919
0045 1398861083 9.5281
0046 1398863525 9.6419
0047 1398865966 10.0887
0048 1398868408 10.1344
0049 1398870849 10.0620
0050 1398873291 10.2049
0051 1398875732 10.3647
0052 1398878173 10.5638
0053 1398880615 10.8021
0054 1398883056 10.8806
0055 1398885498 11.1017
0056 1398887939 12.1606
0057 1398890380 11.4793
0058 1398892822 11.3674
0059 1398895263 12.4172
0060 1398897705 12.9173
0061 1398900146 12.1685
0062 1398902587 11.9346
0063 1398905029 12.0264
0064 1398907470 12.4126
0065 1398909912 12.4496
0066 1398912353 12.6545
0067 1398914794 12.8793
0068 1398917236 13.1052
0069 1398919677 13.3645
0070 1398922119 13.3371
0071 1398924560 13.5172
0072 1398927001 14.1743
0073 1398929443 14.0894
0074 1398931884 13.9006
0075 1398934326 14.0658
0076 1398936767 14.3097
0077 1398939208 14.4139
0078 1398941650 14.4694
0079 1398944091 14.7341
0080 1398946533 14.8531
0081 1398948974 15.5288
0082 1398951416 15.3653
0083 1398953857 15.4417
0084 1398956298 16.1865
0085 1398958740 16.2351
0086 1398961181 15.8117
0087 1398963623 16.4552
0088 1398966064 16.8288
0089 1398968505 16.7071
0090 1398970947 16.9120
0091 1398973388 17.2723
0092 1398975830 17.1554
0093 1398978271 17.2034
0094 1398980712 17.4361
0095 1398983154 17.5307
0096 1398985595 18.5994
0097 1398988037 20.4711
0098 1398990478 18.5105
0099 1398992919 18.4311
0100 1398995361 18.4218
0101 1398997802 18.7284
0102 1399000244 19.0191
0103 1399002685 19.5282
0104 1399005126 19.3559
0105 1399007568 19.6607
0106 1399010009 20.5451
0107 1399012451 20.1519
0108 1399014892 19.9925
0109 1399017333 21.2337
0110 1399019775 20.9010
0111 1399022216 20.7361
0112 1399024658 21.4207
0113 1399027099 21.0353
0114 1399029541 21.1130
0115 1399031982 21.2191
0116 1399034423 21.6025
0117 1399036865 21.6467
0118 1399039306 22.1389
0119 1399041748 22.1213
0120 1399044189 22.3352
0121 1399046630 22.5214
0122 1399049072 22.3980
0123 1399051513 22.4741
0124 1399053955 23.4221
0125 1399056396 23.9733
0126 1399058837 23.2887
0127 1399061279 23.4715
0128 1399063720 24.5046
0129 1399066162 23.5857
0130 1399068603 24.3884
0131 1399071044 24.6878
0132 1399073486 24.1985
0133 1399075927 24.7013
0134 1399078369 25.3190
0135 1399080810 24.2671
0136 1399083251 24.7170
0137 1399085693 25.9939
0138 1399088134 26.7223
0139 1399090576 25.2689
0140 1399093017 25.8717
0141 1399095458 26.1316
0142 1399097900 25.7165
0143 1399100341 25.8695
0144 1399102783 26.0215
0145 1399105224 26.0570
0146 1399107666 26.2004
0147 1399110107 26.4237
0148 1399112548 26.3754
0149 1399114990 26.4077
0150 1399117431 27.5031
0151 1399119873 27.3936
0152 1399122314 27.6057
0153 1399124755 27.6465
0154 1399127197 27.3258
0155 1399129638 27.9082
0156 1399132080 27.6464
0157 1399134521 28.0554
0158 1399136962 28.5299
0159 1399139404 28.7000
0160 1399141845 28.0627
0161 1399144287 28.1866
0162 1399146728 28.7099
0163 1399149169 28.9227
0164 1399151611 29.1989
0165 1399154052 29.5745
0166 1399156494 28.8356
0167 1399158935 28.6491
0168 1399161376 28.8798
0169 1399163818 28.8918
0170 1399166259 28.9678
0171 1399168701 29.2728
0172 1399171142 29.1465
0173 1399173583 29.2939
0174 1399176025 29.6133
0175 1399178466 29.5421
0176 1399180908 29.7179
0177 1399183349 30.2187
0178 1399185791 30.7564
0179 1399188232 31.4469
0180 1399190673 31.1096
0181 1399193115 30.7394
0182 1399195556 30.0993
0183 1399197998 30.7358
0184 1399200439 30.9442
0185 1399202880 30.4087
0186 1399205322 30.4037
0187 1399207763 30.6963
0188 1399210205 30.9802
0189 1399212646 30.6200
0190 1399215087 31.0873
0191 1399217529 30.8131
0192 1399219970 31.2586
0193 1399222412 31.5513
0194 1399224853 31.4562
0195 1399227294 31.0572
0196 1399229736 30.7502
0197 1399232177 31.1172
0198 1399234619 31.1548
0199 1399237060 31.4346
0200 1399239501 31.4782
0201 1399241943 31.7715
0202 1399244384 33.7653
0203 1399246826 32.4098
0204 1399249267 31.4898
0205 1399251708 31.7778
0206 1399254150 31.9785
0207 1399256591 32.1144
0208 1399259033 32.5052
0209 1399261474 32.0773
0210 1399263916 31.9395
0211 1399266357 31.8299
0212 1399268798 32.1378
0213 1399271240 31.8204
0214 1399273681 32.5888
0215 1399276123 33.6486
0216 1399278564 31.6558
0217 1399281005 31.6674
0218 1399283447 32.0949
0219 1399285888 34.2162
0220 1399288330 36.0315
0221 1399290771 32.1948
0222 1399293212 32.1265
0223 1399295654 32.0671
0224 1399298095 32.3554
0225 1399300537 32.0314
0226 1399302978 31.9646
0227 1399305419 33.5487
0228 1399307861 33.3533
0229 1399310302 32.0542
0230 1399312744 32.9187
0231 1399315185 32.6123
0232 1399317626 32.3088
0233 1399320068 32.8875
0234 1399322509 32.7866
0235 1399324951 32.3548
0236 1399327392 32.6011
0237 1399329833 32.7486
0238 1399332275 32.5779
0239 1399334716 32.4730
0240 1399337158 33.5776
0241 1399339599 32.9538
0242 1399342041 32.6798
0243 1399344482 32.6105
0244 1399346923 32.1461
0245 1399349365 32.1829
0246 1399351806 32.5277
0247 1399354248 32.3723
0248 1399356689 32.3974
0249 1399359130 32.3555
0250 1399361572 32.4562
0251 1399364013 32.9534
0252 1399366455 32.9064
0253 1399368896 33.7660
0254 1399371337 33.1992
0255 1399373779 33.4504
0256 1399376220 32.5508
0257 1399378662 32.7898
0258 1399381103 33.6265
0259 1399383544 32.4786
0260 1399385986 32.2430
0261 1399388427 32.6607
0262 1399390869 32.6281
0263 1399393310 32.1969
0264 1399395751 31.8958
0265 1399398193 32.2815
0266 1399400634 32.6993
0267 1399403076 32.5293
0268 1399405517 32.0594
0269 1399407958 32.1138
0270 1399410400 32.4770
0271 1399412841 32.5713
0272 1399415283 31.7212
0273 1399417724 31.9066
0274 1399420166 32.1947
0275 1399422607 32.2175
0276 1399425048 32.2530
0277 1399427490 32.2770
0278 1399429931 32.0820
0279 1399432373 32.2655
0280 1399434814 32.8609
0281 1399437255 31.7300
0282 1399439697 32.3722
0283 1399442138 34.2152
0284 1399444580 32.3949
0285 1399447021 31.6074
0286 1399449462 32.5593
0287 1399451904 32.9361
0288 1399454345 31.4828
0289 1399456787 31.9818
0290 1399459228 32.3483
0291 1399461669 31.6365
0292 1399464111 32.1777
0293 1399466552 32.3676
0294 1399468994 31.9606
0295 1399471435 32.0218
0296 1399473876 32.1302
0297 1399476318 31.7196
0298 1399478759 31.5560
0299 1399481201 31.3798
0300 1399483642 31.5726
0301 1399486083 33.3478
0302 1399488525 33.7906
0303 1399490966 31.5365
0304 1399493408 32.1442
0305 1399495849 33.0116
0306 1399498291 31.9576
0307 1399500732 33.2202
0308 1399503173 33.2765
0309 1399505615 32.5424
0310 1399508056 32.1859
0311 1399510498 32.1022
0312 1399512939 31.8232
0313 1399515380 31.7383
0314 1399517822 32.2145
0315 1399520263 31.8627
0316 1399522705 31.2838
0317 1399525146 32.2275
0318 1399527587 32.2793
0319 1399530029 31.4582
0320 1399532470 32.3953
0321 1399534912 32.1552
0322 1399537353 31.4619
0323 1399539794 32.3275
0324 1399542236 32.1719
0325 1399544677 31.5516
0326 1399547119 32.2845
0327 1399549560 32.1980
0328 1399552001 32.1549
0329 1399554443 33.2730
0330 1399556884 33.7828
0331 1399559326 32.6815
0332 1399561767 34.0971
0333 1399564208 36.5248
0334 1399566650 32.3618
0335 1399569091 31.6859
0336 1399571533 32.5408
0337 1399573974 32.2962
0338 1399576416 32.2234
0339 1399578857 32.0335
0340 1399581298 31.8289
0341 1399583740 32.3192
0342 1399586181 35.3562
0343 1399588623 35.7072
0344 1399591064 32.9258
0345 1399593505 33.7784
0346 1399595947 33.1688
0347 1399598388 32.3716
0348 1399600830 32.3970
0349 1399603271 32.4393
0350 1399605712 32.5322
0351 1399608154 33.0690
0352 1399610595 32.6010
0353 1399613037 32.6732
0354 1399615478 33.4712
0355 1399617919 33.5339
0356 1399620361 33.9720
0357 1399622802 35.2761
0358 1399625244 36.2400
0359 1399627685 33.5745
0360 1399630126 33.7410
0361 1399632568 34.1966
0362 1399635009 33.4228
0363 1399637451 34.0760
0364 1399639892 33.7704
0365 1399642333 32.9582
0366 1399644775 33.2151
0367 1399647216 33.6813
0368 1399649658 33.3403
0369 1399652099 35.0160
0370 1399654541 34.3419
0371 1399656982 33.4336
0372 1399659423 33.0705
0373 1399661865 33.4207
0374 1399664306 33.4003
0375 1399666748 33.6944
0376 1399669189 34.4979
0377 1399671630 34.2601
0378 1399674072 33.5265
0379 1399676513 35.1363
0380 1399678955 34.5557
0381 1399681396 35.5044
0382 1399683837 37.6502
0383 1399686279 37.0561
0384 1399688720 34.0762
0385 1399691162 34.0695
0386 1399693603 34.8375
0387 1399696044 34.2023
0388 1399698486 34.3477
0389 1399700927 34.6461
0390 1399703369 34.1290
0391 1399705810 34.2705
0392 1399708251 34.5655
0393 1399710693 34.5409
0394 1399713134 34.8420
0395 1399715576 35.6417
0396 1399718017 34.6466
0397 1399720458 35.2321
0398 1399722900 35.7050
0399 1399725341 35.0071
0400 1399727783 35.4466
0401 1399730224 35.6559
0402 1399732666 34.7506
0403 1399735107 34.9900
0404 1399737548 36.0870
0405 1399739990 35.3262
0406 1399742431 35.6761
0407 1399744873 37.9994
0408 1399747314 38.1328
0409 1399749755 36.6558
0410 1399752197 36.9395
0411 1399754638 35.5274
0412 1399757080 36.0591
0413 1399759521 35.9209
0414 1399761962 35.3478
0415 1399764404 36.0389
0416 1399766845 35.7524
0417 1399769287 36.3333
0418 1399771728 35.5201
0419 1399774169 36.2789
0420 1399776611 37.3423
0421 1399779052 36.7019
0422 1399781494 36.1425
0423 1399783935 36.2399
0424 1399786376 38.9995
0425 1399788818 39.1102
0426 1399791259 36.7668
0427 1399793701 36.8736
0428 1399796142 36.7486
0429 1399798583 37.7518
0430 1399801025 36.9963
0431 1399803466 37.4297
0432 1399805908 38.0378
0433 1399808349 38.5647
0434 1399810791 37.7332
0435 1399813232 38.3772
0436 1399815673 37.3993
0437 1399818115 37.0980
0438 1399820556 37.4905
0439 1399822998 37.2370
0440 1399825439 37.6912
0441 1399827880 37.8347
0442 1399830322 38.3287
0443 1399832763 37.6997
0444 1399835205 37.4527
0445 1399837646 37.3788
0446 1399840087 38.4556
0447 1399842529 38.3621
0448 1399844970 38.6422
0449 1399847412 38.2146
0450 1399849853 37.8628
0451 1399852294 38.1292
0452 1399854736 38.2715
0453 1399857177 39.2238
0454 1399859619 39.6881
0455 1399862060 38.7538
0456 1399864501 38.9215
0457 1399866943 40.0495
0458 1399869384 39.0166
0459 1399871826 39.4655
0460 1399874267 39.5807
0461 1399876708 38.3530
0462 1399879150 38.7065
0463 1399881591 39.2430
0464 1399884033 39.4682
0465 1399886474 41.4837
0466 1399888916 41.7247
0467 1399891357 38.3791
0468 1399893798 38.7475
0469 1399896240 39.7818
0470 1399898681 39.7797
0471 1399901123 39.4687
0472 1399903564 40.1515
0473 1399906005 39.5936
0474 1399908447 39.6815
0475 1399910888 39.8211
0476 1399913330 39.7618
0477 1399915771 39.5791
0478 1399918212 40.1107
0479 1399920654 40.4811
0480 1399923095 40.5684
0481 1399925537 39.5860
0482 1399927978 40.1472
0483 1399930419 40.4392
0484 1399932861 42.1535
0485 1399935302 43.3141
0486 1399937744 40.2652
0487 1399940185 40.2953
0488 1399942626 40.5537
0489 1399945068 40.5244
0490 1399947509 40.2652
0491 1399949951 41.0356
0492 1399952392 41.0787
0493 1399954833 40.7461
0494 1399957275 40.7498
0495 1399959716 41.4465
0496 1399962158 41.3462
0497 1399964599 42.6171
0498 1399967041 41.7759
0499 1399969482 40.7810
0500 1399971923 42.0792
0501 1399974365 52.1341
0502 1399976806 51.2191
0503 1399979248 51.1009
0504 1399981689 45.7623
0505 1399984130 44.4387
0506 1399986572 53.2594
0507 1399989013 60.7378
0508 1399991455 47.8446
0509 1399993896 45.6875
0510 1399996337 94.2652
0511 1399998779 334.0319
0512 1400001220 100.1833
0513 1400003662 51.5595
0514 1400006103 45.3993
0515 1400008544 43.2794
0516 1400010986 45.4685
0517 1400013427 52.2711
0518 1400015869 55.4899
0519 1400018310 41.8802
0520 1400020751 41.8926
0521 1400023193 43.0759
0522 1400025634 42.7766
0523 1400028076 42.0356
0524 1400030517 41.2817
0525 1400032958 41.2605
0526 1400035400 40.8380
0527 1400037841 40.5352
0528 1400040283 41.4663
0529 1400042724 41.4543
0530 1400045166 40.5168
0531 1400047607 40.5783
0532 1400050048 41.2966
0533 1400052490 40.2242
0534 1400054931 41.3072
0535 1400057373 41.3754
0536 1400059814 40.8888
0537 1400062255 40.3024
0538 1400064697 40.0243
0539 1400067138 39.6607
0540 1400069580 39.6253
0541 1400072021 40.6506
0542 1400074462 39.8451
0543 1400076904 39.9465
0544 1400079345 39.9544
0545 1400081787 39.9155
0546 1400084228 39.6136
0547 1400086669 44.1040
0548 1400089111 42.5127
0549 1400091552 39.6220
0550 1400093994 40.3268
0551 1400096435 39.9830
0552 1400098876 39.2043
0553 1400101318 39.1778
0554 1400103759 40.0420
0555 1400106201 39.6609
0556 1400108642 40.7305
0557 1400111083 41.3257
0558 1400113525 38.9515
0559 1400115966 39.5929
0560 1400118408 39.5586
0561 1400120849 38.9633
0562 1400123291 39.5601
0563 1400125732 39.6979
0564 1400128173 39.4380
0565 1400130615 39.1479
0566 1400133056 39.4316
0567 1400135498 38.6478
0568 1400137939 38.5442
0569 1400140380 38.1434
0570 1400142822 38.3489
0571 1400145263 38.3199
0572 1400147705 38.6606
0573 1400150146 38.4213
0574 1400152587 38.4105
0575 1400155029 39.9951
0576 1400157470 39.2537
0577 1400159912 38.4876
0578 1400162353 40.0426
0579 1400164794 39.2177
0580 1400167236 38.1763
0581 1400169677 39.5118
0582 1400172119 39.2350
0583 1400174560 37.6881
0584 1400177001 37.9642
0585 1400179443 38.0824
0586 1400181884 37.8383
0587 1400184326 37.6301
0588 1400186767 39.2400
0589 1400189208 37.8866
0590 1400191650 37.6405
0591 1400194091 37.7978
0592 1400196533 37.5454
0593 1400198974 37.4912
0594 1400201416 37.8474
0595 1400203857 37.2826
0596 1400206298 37.4782
0597 1400208740 37.9147
0598 1400211181 37.2596
0599 1400213623 36.9121
0600 1400216064 37.2329
0601 1400218505 37.3392
0602 1400220947 37.3439
0603 1400223388 37.6071
0604 1400225830 36.3562
0605 1400228271 36.0348
0606 1400230712 36.9755
0607 1400233154 36.7957
0608 1400235595 36.6433
0609 1400238037 36.2879
0610 1400240478 36.6465
0611 1400242919 36.1330
0612 1400245361 36.4308
0613 1400247802 35.8662
0614 1400250244 35.9244
0615 1400252685 36.7013
0616 1400255126 37.3041
0617 1400257568 36.0878
0618 1400260009 36.0375
0619 1400262451 35.7088
0620 1400264892 35.5949
0621 1400267333 35.5200
0622 1400269775 35.3603
0623 1400272216 35.0644
0624 1400274658 35.3784
0625 1400277099 36.0857
0626 1400279541 35.5036
0627 1400281982 36.0816
0628 1400284423 38.6790
0629 1400286865 37.5031
0630 1400289306 35.8798
0631 1400291748 39.7662
0632 1400294189 36.5675
0633 1400296630 35.0587
0634 1400299072 35.1656
0635 1400301513 34.8228
0636 1400303955 34.8744
0637 1400306396 35.0201
0638 1400308837 35.1806
0639 1400311279 34.7657
0640 1400313720 34.8445
0641 1400316162 34.8389
0642 1400318603 34.5783
0643 1400321044 35.5991
0644 1400323486 36.3163
0645 1400325927 34.4560
0646 1400328369 34.3857
0647 1400330810 35.1052
0648 1400333251 34.0685
0649 1400335693 34.1306
0650 1400338134 34.3444
0651 1400340576 34.3969
0652 1400343017 34.7159
0653 1400345458 36.5091
0654 1400347900 34.1926
0655 1400350341 34.1611
0656 1400352783 36.1438
0657 1400355224 34.7653
0658 1400357666 34.7785
0659 1400360107 34.2726
0660 1400362548 34.1501
0661 1400364990 34.0755
0662 1400367431 33.7935
0663 1400369873 33.5508
0664 1400372314 33.3729
0665 1400374755 34.1793
0666 1400377197 34.0851
0667 1400379638 33.7625
0668 1400382080 33.8482
0669 1400384521 34.5241
0670 1400386962 37.3062
0671 1400389404 35.5455
0672 1400391845 34.1040
0673 1400394287 33.3067
0674 1400396728 33.3410
0675 1400399169 34.1488
0676 1400401611 33.6199
0677 1400404052 33.3692
0678 1400406494 34.2944
0679 1400408935 33.4224
0680 1400411376 34.1855
0681 1400413818 37.1575
0682 1400416259 33.9582
0683 1400418701 32.9957
0684 1400421142 33.5857
0685 1400423583 33.2156
0686 1400426025 33.0475
0687 1400428466 33.5149
0688 1400430908 33.0347
0689 1400433349 32.7202
0690 1400435791 32.8388
0691 1400438232 32.8398
0692 1400440673 32.6031
0693 1400443115 33.2675
0694 1400445556 33.2339
0695 1400447998 33.0181
0696 1400450439 33.3557
0697 1400452880 33.5459
0698 1400455322 32.8211
0699 1400457763 33.1028
0700 1400460205 33.0005
0701 1400462646 32.7137
0702 1400465087 35.1858
0703 1400467529 34.7516
0704 1400469970 32.8014
0705 1400472412 33.6155
0706 1400474853 36.0890
0707 1400477294 33.0951
0708 1400479736 32.5214
0709 1400482177 33.1731
0710 1400484619 32.9338
0711 1400487060 33.0746
0712 1400489501 33.6136
0713 1400491943 33.1837
0714 1400494384 33.8941
0715 1400496826 34.7376
0716 1400499267 33.3916
0717 1400501708 32.7469
0718 1400504150 33.7772
0719 1400506591 33.1121
0720 1400509033 32.9244
0721 1400511474 33.1112
0722 1400513916 32.6775
0723 1400516357 32.9643
0724 1400518798 33.5977
0725 1400521240 34.0505
0726 1400523681 33.5127
0727 1400526123 35.1294
0728 1400528564 34.0206
0729 1400531005 32.7459
0730 1400533447 34.2138
0731 1400535888 35.1018
0732 1400538330 33.4868
0733 1400540771 33.8254
0734 1400543212 34.6441
0735 1400545654 33.2373
0736 1400548095 33.2570
0737 1400550537 33.9974
0738 1400552978 33.3353
0739 1400555419 33.4351
0740 1400557861 34.1073
0741 1400560302 33.5883
0742 1400562744 33.0654
0743 1400565185 33.2945
0744 1400567626 32.9752
0745 1400570068 33.1858
0746 1400572509 34.2218
0747 1400574951 33.4442
0748 1400577392 33.1359
0749 1400579833 33.6153
0750 1400582275 33.6436
0751 1400584716 34.0060
0752 1400587158 38.1736
0753 1400589599 34.7967
0754 1400592041 33.6814
0755 1400594482 35.6560
0756 1400596923 36.5466
0757 1400599365 34.0771
0758 1400601806 34.0615
0759 1400604248 33.9835
0760 1400606689 33.3033
0761 1400609130 34.0464
0762 1400611572 34.0184
0763 1400614013 33.6756
0764 1400616455 34.0646
0765 1400618896 34.2738
0766 1400621337 33.9408
0767 1400623779 33.8368
0768 1400626220 34.3190
0769 1400628662 33.9234
0770 1400631103 34.0913
0771 1400633544 34.1377
0772 1400635986 33.7683
0773 1400638427 34.1836
0774 1400640869 36.0300
0775 1400643310 34.1394
0776 1400645751 34.6260
0777 1400648193 36.0140
0778 1400650634 34.0025
0779 1400653076 34.1087
0780 1400655517 34.5847
0781 1400657958 34.7041
0782 1400660400 33.6208
0783 1400662841 34.3324
0784 1400665283 34.5082
0785 1400667724 34.0326
0786 1400670166 33.9590
0787 1400672607 38.3592
0788 1400675048 45.3834
0789 1400677490 35.4232
0790 1400679931 34.2452
0791 1400682373 33.7787
0792 1400684814 34.2234
0793 1400687255 35.6610
0794 1400689697 34.5137
0795 1400692138 34.9160
0796 1400694580 35.5946
0797 1400697021 34.4224
0798 1400699462 33.9644
0799 1400701904 34.1487
0800 1400704345 33.9676
0801 1400706787 33.9493
0802 1400709228 34.3920
0803 1400711669 33.7279
0804 1400714111 34.1063
0805 1400716552 36.7128
0806 1400718994 35.3560
0807 1400721435 33.9495
0808 1400723876 34.8865
0809 1400726318 34.0732
0810 1400728759 34.0462
0811 1400731201 33.8689
0812 1400733642 33.6890
0813 1400736083 33.3878
0814 1400738525 33.8503
0815 1400740966 33.6505
0816 1400743408 33.3705
0817 1400745849 33.9400
0818 1400748291 33.9677
0819 1400750732 33.3775
0820 1400753173 33.9252
0821 1400755615 33.6224
0822 1400758056 33.0159
0823 1400760498 33.4718
0824 1400762939 33.7639
0825 1400765380 33.4009
0826 1400767822 34.8794
0827 1400770263 34.2531
0828 1400772705 33.1838
0829 1400775146 33.0177
0830 1400777587 35.5959
0831 1400780029 33.5668
0832 1400782470 32.5021
0833 1400784912 33.3411
0834 1400787353 34.4034
0835 1400789794 32.9483
0836 1400792236 33.2221
0837 1400794677 32.8967
0838 1400797119 32.4665
0839 1400799560 32.7804
0840 1400802001 32.7292
0841 1400804443 32.0511
0842 1400806884 32.0583
0843 1400809326 32.4518
0844 1400811767 32.1295
0845 1400814208 32.8344
0846 1400816650 32.1153
0847 1400819091 32.3178
0848 1400821533 35.3322
0849 1400823974 37.2464
0850 1400826416 31.8295
0851 1400828857 32.6071
0852 1400831298 32.0024
0853 1400833740 31.2428
0854 1400836181 31.5318
0855 1400838623 32.7655
0856 1400841064 31.0129
0857 1400843505 31.0079
0858 1400845947 31.3188
0859 1400848388 30.6742
0860 1400850830 30.6032
0861 1400853271 30.6043
0862 1400855712 30.3396
0863 1400858154 30.6680
0864 1400860595 30.1605
0865 1400863037 30.1659
0866 1400865478 29.6353
0867 1400867919 30.2091
0868 1400870361 29.5757
0869 1400872802 29.6840
0870 1400875244 29.7317
0871 1400877685 29.5333
0872 1400880126 29.2645
0873 1400882568 29.4061
0874 1400885009 29.6986
0875 1400887451 32.3120
0876 1400889892 30.0002
0877 1400892333 29.0205
0878 1400894775 28.0795
0879 1400897216 28.7559
0880 1400899658 30.2933
0881 1400902099 27.7781
0882 1400904541 27.8150
0883 1400906982 27.4118
0884 1400909423 27.2449
0885 1400911865 27.2438
0886 1400914306 27.3501
0887 1400916748 26.8356
0888 1400919189 26.7045
0889 1400921630 27.1220
0890 1400924072 26.3047
0891 1400926513 26.1769
0892 1400928955 26.8008
0893 1400931396 26.1949
0894 1400933837 25.5524
0895 1400936279 25.2744
0896 1400938720 25.3215
0897 1400941162 25.4078
0898 1400943603 25.6888
0899 1400946044 25.6324
0900 1400948486 25.0695
0901 1400950927 25.5967
0902 1400953369 24.9361
0903 1400955810 23.9576
0904 1400958251 25.0929
0905 1400960693 25.2958
0906 1400963134 23.2975
0907 1400965576 23.8148
0908 1400968017 23.4855
0909 1400970458 23.2915
0910 1400972900 22.9566
0911 1400975341 23.2477
0912 1400977783 22.6317
0913 1400980224 22.3485
0914 1400982666 21.8653
0915 1400985107 21.4929
0916 1400987548 21.6473
0917 1400989990 21.7181
0918 1400992431 21.1277
0919 1400994873 20.8758
0920 1400997314 20.8188
0921 1400999755 20.6434
0922 1401002197 20.5431
0923 1401004638 20.3824
0924 1401007080 20.2539
0925 1401009521 20.5476
0926 1401011962 20.6414
0927 1401014404 19.4745
0928 1401016845 19.3161
0929 1401019287 20.2081
0930 1401021728 20.1186
0931 1401024169 18.7571
0932 1401026611 18.8174
0933 1401029052 18.5290
0934 1401031494 18.0622
0935 1401033935 17.8516
0936 1401036376 17.6942
0937 1401038818 17.2256
0938 1401041259 17.5350
0939 1401043701 17.7025
0940 1401046142 16.9034
0941 1401048583 16.6910
0942 1401051025 16.4622
0943 1401053466 16.6144
0944 1401055908 16.1873
0945 1401058349 16.0702
0946 1401060791 15.6600
0947 1401063232 15.6166
0948 1401065673 15.7633
0949 1401068115 15.3160
0950 1401070556 15.2809
0951 1401072998 15.2631
0952 1401075439 14.7398
0953 1401077880 14.4299
0954 1401080322 15.2431
0955 1401082763 14.6858
0956 1401085205 14.3920
0957 1401087646 15.5817
0958 1401090087 13.9280
0959 1401092529 13.5384
0960 1401094970 13.3160
0961 1401097412 13.2815
0962 1401099853 12.8613
0963 1401102294 12.9139
0964 1401104736 12.5864
0965 1401107177 12.5015
0966 1401109619 12.4548
0967 1401112060 12.2750
0968 1401114501 11.9120
0969 1401116943 11.8374
0970 1401119384 11.7075
0971 1401121826 11.5010
0972 1401124267 11.4782
0973 1401126708 11.6169
0974 1401129150 11.2925
0975 1401131591 11.3409
0976 1401134033 11.5303
0977 1401136474 10.6577
0978 1401138916 10.4282
0979 1401141357 10.7373
0980 1401143798 10.2943
0981 1401146240 10.1481
0982 1401148681 10.2516
0983 1401151123 10.0650
0984 1401153564 9.6454
0985 1401156005 9.7061
0986 1401158447 9.5930
0987 1401160888 9.3400
0988 1401163330 9.4471
0989 1401165771 9.1455
0990 1401168212 8.9937
0991 1401170654 9.0036
0992 1401173095 9.0142
0993 1401175537 8.8885
0994 1401177978 8.8292
0995 1401180419 8.7303
0996 1401182861 8.4002
0997 1401185302 8.5093
0998 1401187744 8.7755
0999 1401190185 8.3628
1000 1401192626 8.1017
1001 1401195068 8.0914
1002 1401197509 8.8700
1003 1401199951 9.1143
1004 1401202392 8.4347
1005 1401204833 7.9271
1006 1401207275 7.7311
1007 1401209716 7.7446
1008 1401212158 7.6444
1009 1401214599 7.7925
1010 1401217041 7.5374
1011 1401219482 7.3562
1012 1401221923 7.3922
1013 1401224365 7.3758
1014 1401226806 7.2093
1015 1401229248 7.1241
1016 1401231689 7.0760
1017 1401234130 7.0979
1018 1401236572 7.0922
1019 1401239013 7.1128
1020 1401241455 7.0327
1021 1401243896 7.1259
1022 1401246337 7.2126
1023 1401248779 7.2636
