# File: 20-05-31T222742.hot
# NOTEA     = None Attached.  RTLSDR Dongle Test
# NOTEB     = Spectral Integration
# OBSERVER  = Science Aficionado
# DEVICE    = rtlsdr=0
# DATADIR   = ../data/
# SITE      = None Attached.  RTLSDR Dongle Test
# CITY      = Green Bank
# REGION    = West Virginia
# COUNTRY   = US
# TELTYPE   = Bubble Wrap  Horn
# FRAME     = TOPO
# GAIN1     = 49.0
# GAIN2     = 11.0
# GAIN3     = 11.0
# GAIN4     = 0.0
# Count     = 10000
# CenterFreq= 1400000000.0
# Bandwidth = 2500000.0
# Duration  = 41.550774
# DeltaX    = 5859.375
# TSYS      = 200.0
# TRX       = 100.0
# TRMS      = 2.0
# TINT      = 1.0
# KPERC     = 100.0
# GAINFACT  = 1.0
# BUNIT     = Counts
# NCHAN     = 1024
# NSPEC     = 1
# NTIME     = 0
# NSAMPLES  = 0
# EPEAK     = 4.10875183718
# ERMS      = 0.995973393526
# EMJD      = 58568.808999981004 
# REFCHAN   = 512.0
# REFSAMPL  = 256.0
# NAVE      = 100
# NMEDIAN   = 1024
# Fft_rate  = 5000
# UTC       = 2020-05-31 22:27:42.828819
# SECONDS   =       0.0000000000 
# LST       = 09:47:50.700
# AZ        = 180.0
# EL        = -90.0
# TELLON    = -79:50:22.920
# TELLAT    = +38:25:59.160
# RA        = 21:45:22.140
# DEC       = -38:37:27.000
# GALLON    = 04:13:41.80
# GALLAT    = -49:44:16.80
# ALT_SUN   = +22:56:17.1
# AZ_SUN    = +280:41:54.9
# ETAA      = 0.8
# ETAB      = 0.99
# POLANGLE  = 0.0
# TELSIZEAM = 1.0
# TELSIZEBM = 1.0
# AST_VERS  = 05.01
0000 1398751220 8.0220
0001 1398753662 7.9334
0002 1398756103 8.0314
0003 1398758544 8.0806
0004 1398760986 8.0063
0005 1398763427 7.9521
0006 1398765869 7.8129
0007 1398768310 7.8093
0008 1398770751 7.8233
0009 1398773193 8.0005
0010 1398775634 8.2874
0011 1398778076 8.1545
0012 1398780517 8.0392
0013 1398782958 8.1036
0014 1398785400 8.3184
0015 1398787841 9.1576
0016 1398790283 8.3622
0017 1398792724 8.2102
0018 1398795166 8.3100
0019 1398797607 10.0798
0020 1398800048 9.7051
0021 1398802490 8.5731
0022 1398804931 8.5774
0023 1398807373 8.6620
0024 1398809814 8.7026
0025 1398812255 8.8649
0026 1398814697 8.8693
0027 1398817138 8.8719
0028 1398819580 9.1085
0029 1398822021 9.1310
0030 1398824462 9.1201
0031 1398826904 9.3453
0032 1398829345 9.3650
0033 1398831787 9.4805
0034 1398834228 9.9000
0035 1398836669 10.1245
0036 1398839111 9.6606
0037 1398841552 9.8555
0038 1398843994 10.0493
0039 1398846435 10.1412
0040 1398848876 10.2740
0041 1398851318 10.4236
0042 1398853759 10.4465
0043 1398856201 10.7399
0044 1398858642 10.9112
0045 1398861083 10.8287
0046 1398863525 10.9028
0047 1398865966 11.4144
0048 1398868408 11.6985
0049 1398870849 11.4997
0050 1398873291 11.7275
0051 1398875732 11.7793
0052 1398878173 11.8407
0053 1398880615 12.1991
0054 1398883056 12.2129
0055 1398885498 12.7807
0056 1398887939 14.1751
0057 1398890380 13.0442
0058 1398892822 12.9712
0059 1398895263 13.8211
0060 1398897705 14.2940
0061 1398900146 13.8030
0062 1398902587 13.5822
0063 1398905029 13.5980
0064 1398907470 14.2488
0065 1398909912 14.2840
0066 1398912353 14.7962
0067 1398914794 15.4129
0068 1398917236 14.9424
0069 1398919677 15.2665
0070 1398922119 15.1359
0071 1398924560 15.1609
0072 1398927001 15.7544
0073 1398929443 15.7536
0074 1398931884 16.2102
0075 1398934326 16.0785
0076 1398936767 16.0655
0077 1398939208 16.3692
0078 1398941650 16.7727
0079 1398944091 16.8458
0080 1398946533 16.9467
0081 1398948974 17.2787
0082 1398951416 17.4512
0083 1398953857 17.6733
0084 1398956298 18.6384
0085 1398958740 18.5386
0086 1398961181 18.0840
0087 1398963623 18.4809
0088 1398966064 18.6329
0089 1398968505 18.8517
0090 1398970947 19.4264
0091 1398973388 19.7989
0092 1398975830 19.3375
0093 1398978271 19.7704
0094 1398980712 20.2197
0095 1398983154 20.1210
0096 1398985595 21.8202
0097 1398988037 26.2151
0098 1398990478 21.1238
0099 1398992919 20.9869
0100 1398995361 21.1251
0101 1398997802 21.0016
0102 1399000244 21.5003
0103 1399002685 22.0097
0104 1399005126 22.1075
0105 1399007568 22.2463
0106 1399010009 23.2901
0107 1399012451 23.7283
0108 1399014892 23.4892
0109 1399017333 24.4444
0110 1399019775 23.6080
0111 1399022216 23.4448
0112 1399024658 24.3316
0113 1399027099 24.1703
0114 1399029541 24.1098
0115 1399031982 24.6308
0116 1399034423 24.7046
0117 1399036865 24.3503
0118 1399039306 24.9429
0119 1399041748 25.2692
0120 1399044189 25.2342
0121 1399046630 25.3715
0122 1399049072 25.6643
0123 1399051513 25.5648
0124 1399053955 26.5134
0125 1399056396 27.4940
0126 1399058837 26.4116
0127 1399061279 26.8030
0128 1399063720 27.1757
0129 1399066162 26.7076
0130 1399068603 27.0042
0131 1399071044 27.6677
0132 1399073486 27.2173
0133 1399075927 27.5903
0134 1399078369 28.8339
0135 1399080810 28.0967
0136 1399083251 28.0979
0137 1399085693 29.8900
0138 1399088134 31.0318
0139 1399090576 28.6060
0140 1399093017 29.3856
0141 1399095458 29.4624
0142 1399097900 28.7923
0143 1399100341 29.3634
0144 1399102783 29.6496
0145 1399105224 29.4799
0146 1399107666 29.6631
0147 1399110107 29.9851
0148 1399112548 30.1160
0149 1399114990 30.1920
0150 1399117431 31.1881
0151 1399119873 31.2855
0152 1399122314 31.0902
0153 1399124755 30.8724
0154 1399127197 30.7394
0155 1399129638 31.2881
0156 1399132080 31.9287
0157 1399134521 31.8942
0158 1399136962 32.4671
0159 1399139404 33.4046
0160 1399141845 31.8829
0161 1399144287 32.0192
0162 1399146728 32.4114
0163 1399149169 32.8724
0164 1399151611 33.1096
0165 1399154052 33.0277
0166 1399156494 32.8237
0167 1399158935 32.9134
0168 1399161376 32.9478
0169 1399163818 33.1119
0170 1399166259 33.2660
0171 1399168701 33.6227
0172 1399171142 33.6279
0173 1399173583 33.8166
0174 1399176025 34.0273
0175 1399178466 33.8614
0176 1399180908 33.9210
0177 1399183349 34.1637
0178 1399185791 35.8333
0179 1399188232 37.8926
0180 1399190673 36.3459
0181 1399193115 35.0570
0182 1399195556 34.3020
0183 1399197998 35.7828
0184 1399200439 36.5142
0185 1399202880 34.3788
0186 1399205322 34.9881
0187 1399207763 36.4551
0188 1399210205 35.1999
0189 1399212646 34.9612
0190 1399215087 35.4171
0191 1399217529 35.0893
0192 1399219970 35.4718
0193 1399222412 35.9840
0194 1399224853 35.1283
0195 1399227294 35.5482
0196 1399229736 35.6177
0197 1399232177 35.8912
0198 1399234619 35.5561
0199 1399237060 35.7779
0200 1399239501 35.7487
0201 1399241943 35.7406
0202 1399244384 37.3410
0203 1399246826 35.9916
0204 1399249267 35.9738
0205 1399251708 36.2442
0206 1399254150 35.8042
0207 1399256591 36.3765
0208 1399259033 37.0847
0209 1399261474 36.5231
0210 1399263916 35.8505
0211 1399266357 36.1303
0212 1399268798 36.2779
0213 1399271240 36.3520
0214 1399273681 37.0426
0215 1399276123 37.8586
0216 1399278564 35.9418
0217 1399281005 36.4924
0218 1399283447 36.3326
0219 1399285888 40.8914
0220 1399288330 46.3891
0221 1399290771 37.0694
0222 1399293212 36.6295
0223 1399295654 36.4971
0224 1399298095 36.9267
0225 1399300537 36.4555
0226 1399302978 36.6546
0227 1399305419 37.7758
0228 1399307861 37.5111
0229 1399310302 37.0419
0230 1399312744 38.0234
0231 1399315185 37.1091
0232 1399317626 36.7439
0233 1399320068 37.7448
0234 1399322509 37.3512
0235 1399324951 36.6140
0236 1399327392 36.6645
0237 1399329833 39.7285
0238 1399332275 38.7087
0239 1399334716 37.0811
0240 1399337158 38.5161
0241 1399339599 37.9615
0242 1399342041 37.2008
0243 1399344482 36.8948
0244 1399346923 36.4115
0245 1399349365 36.5786
0246 1399351806 37.4744
0247 1399354248 36.5461
0248 1399356689 36.7239
0249 1399359130 36.8594
0250 1399361572 36.2259
0251 1399364013 37.3846
0252 1399366455 37.5899
0253 1399368896 38.1160
0254 1399371337 37.7678
0255 1399373779 37.9745
0256 1399376220 36.5499
0257 1399378662 36.8585
0258 1399381103 38.0128
0259 1399383544 36.6086
0260 1399385986 37.3010
0261 1399388427 38.1562
0262 1399390869 38.1031
0263 1399393310 37.1559
0264 1399395751 36.8783
0265 1399398193 36.4288
0266 1399400634 37.6369
0267 1399403076 36.7561
0268 1399405517 36.3865
0269 1399407958 36.1103
0270 1399410400 36.5312
0271 1399412841 36.8379
0272 1399415283 35.7725
0273 1399417724 36.3891
0274 1399420166 36.3759
0275 1399422607 36.7160
0276 1399425048 36.2929
0277 1399427490 36.9791
0278 1399429931 36.3973
0279 1399432373 37.0790
0280 1399434814 37.3727
0281 1399437255 36.1893
0282 1399439697 36.5954
0283 1399442138 38.3830
0284 1399444580 36.7778
0285 1399447021 35.9953
0286 1399449462 36.8510
0287 1399451904 37.2686
0288 1399454345 36.1197
0289 1399456787 36.7162
0290 1399459228 35.9498
0291 1399461669 36.0598
0292 1399464111 36.3553
0293 1399466552 36.9840
0294 1399468994 36.5976
0295 1399471435 36.1948
0296 1399473876 36.7363
0297 1399476318 35.8498
0298 1399478759 36.1318
0299 1399481201 35.9159
0300 1399483642 36.0650
0301 1399486083 39.4135
0302 1399488525 40.3300
0303 1399490966 35.9537
0304 1399493408 36.5777
0305 1399495849 37.5175
0306 1399498291 36.7275
0307 1399500732 37.6919
0308 1399503173 37.1722
0309 1399505615 36.9644
0310 1399508056 37.0995
0311 1399510498 36.6093
0312 1399512939 36.2428
0313 1399515380 36.2758
0314 1399517822 36.6362
0315 1399520263 36.3245
0316 1399522705 35.7786
0317 1399525146 36.3201
0318 1399527587 36.3076
0319 1399530029 36.1058
0320 1399532470 36.7834
0321 1399534912 36.4847
0322 1399537353 35.8604
0323 1399539794 36.4202
0324 1399542236 36.9138
0325 1399544677 36.1386
0326 1399547119 36.3082
0327 1399549560 36.3826
0328 1399552001 36.2608
0329 1399554443 37.5933
0330 1399556884 38.7000
0331 1399559326 36.7727
0332 1399561767 37.5288
0333 1399564208 38.8791
0334 1399566650 36.5381
0335 1399569091 36.1585
0336 1399571533 37.0667
0337 1399573974 36.3327
0338 1399576416 36.3258
0339 1399578857 36.9789
0340 1399581298 36.7132
0341 1399583740 36.5702
0342 1399586181 42.6477
0343 1399588623 44.5961
0344 1399591064 37.3055
0345 1399593505 37.0381
0346 1399595947 36.6202
0347 1399598388 36.0880
0348 1399600830 37.0201
0349 1399603271 37.0375
0350 1399605712 36.6579
0351 1399608154 37.0461
0352 1399610595 37.6921
0353 1399613037 36.5378
0354 1399615478 37.6886
0355 1399617919 37.9074
0356 1399620361 38.6119
0357 1399622802 39.3353
0358 1399625244 39.6169
0359 1399627685 37.8850
0360 1399630126 38.1732
0361 1399632568 39.4933
0362 1399635009 38.3698
0363 1399637451 38.5730
0364 1399639892 37.9832
0365 1399642333 37.5642
0366 1399644775 37.6498
0367 1399647216 38.1976
0368 1399649658 37.7173
0369 1399652099 39.4613
0370 1399654541 38.6268
0371 1399656982 37.7285
0372 1399659423 37.9860
0373 1399661865 38.3021
0374 1399664306 38.3504
0375 1399666748 37.9947
0376 1399669189 38.7495
0377 1399671630 38.1997
0378 1399674072 37.9619
0379 1399676513 40.6168
0380 1399678955 39.5070
0381 1399681396 40.1597
0382 1399683837 41.7266
0383 1399686279 40.4955
0384 1399688720 38.4949
0385 1399691162 38.6472
0386 1399693603 39.1121
0387 1399696044 38.8363
0388 1399698486 39.0696
0389 1399700927 39.0636
0390 1399703369 38.8881
0391 1399705810 38.5707
0392 1399708251 38.8080
0393 1399710693 39.0227
0394 1399713134 39.8022
0395 1399715576 40.4068
0396 1399718017 39.7899
0397 1399720458 41.0664
0398 1399722900 40.1044
0399 1399725341 39.6187
0400 1399727783 39.7976
0401 1399730224 39.8222
0402 1399732666 39.3559
0403 1399735107 39.5606
0404 1399737548 40.2674
0405 1399739990 40.1378
0406 1399742431 40.0868
0407 1399744873 42.0494
0408 1399747314 43.0376
0409 1399749755 45.7076
0410 1399752197 43.6325
0411 1399754638 40.4173
0412 1399757080 40.5356
0413 1399759521 40.5818
0414 1399761962 40.3037
0415 1399764404 40.5666
0416 1399766845 40.5659
0417 1399769287 41.0392
0418 1399771728 40.8592
0419 1399774169 40.9607
0420 1399776611 42.0330
0421 1399779052 42.3156
0422 1399781494 41.5503
0423 1399783935 41.0298
0424 1399786376 47.5573
0425 1399788818 47.3077
0426 1399791259 43.6147
0427 1399793701 46.5332
0428 1399796142 41.7943
0429 1399798583 42.2872
0430 1399801025 42.1859
0431 1399803466 42.3880
0432 1399805908 42.7672
0433 1399808349 44.3648
0434 1399810791 43.0961
0435 1399813232 42.5399
0436 1399815673 41.8536
0437 1399818115 42.4994
0438 1399820556 42.9942
0439 1399822998 42.9088
0440 1399825439 42.2705
0441 1399827880 42.5009
0442 1399830322 43.2137
0443 1399832763 43.4930
0444 1399835205 42.7470
0445 1399837646 42.8005
0446 1399840087 43.6404
0447 1399842529 43.9644
0448 1399844970 44.7179
0449 1399847412 43.6683
0450 1399849853 42.9663
0451 1399852294 43.2766
0452 1399854736 43.1463
0453 1399857177 44.5630
0454 1399859619 44.3749
0455 1399862060 43.3915
0456 1399864501 43.7247
0457 1399866943 46.3329
0458 1399869384 44.2280
0459 1399871826 44.9085
0460 1399874267 44.5138
0461 1399876708 43.3779
0462 1399879150 43.8228
0463 1399881591 43.9072
0464 1399884033 44.5087
0465 1399886474 49.4429
0466 1399888916 48.3845
0467 1399891357 43.6928
0468 1399893798 44.1491
0469 1399896240 49.2885
0470 1399898681 50.2197
0471 1399901123 45.3905
0472 1399903564 45.5278
0473 1399906005 44.1111
0474 1399908447 45.0922
0475 1399910888 44.7568
0476 1399913330 45.1418
0477 1399915771 45.3834
0478 1399918212 45.5675
0479 1399920654 45.1806
0480 1399923095 45.8868
0481 1399925537 45.5888
0482 1399927978 50.2566
0483 1399930419 49.7356
0484 1399932861 50.1333
0485 1399935302 49.8312
0486 1399937744 46.1660
0487 1399940185 45.7540
0488 1399942626 46.3401
0489 1399945068 45.5250
0490 1399947509 45.6437
0491 1399949951 46.3808
0492 1399952392 47.0455
0493 1399954833 45.9893
0494 1399957275 46.4860
0495 1399959716 46.5207
0496 1399962158 46.2778
0497 1399964599 46.8427
0498 1399967041 46.4549
0499 1399969482 46.4809
0500 1399971923 47.1721
0501 1399974365 58.2608
0502 1399976806 56.5342
0503 1399979248 57.2875
0504 1399981689 78.4611
0505 1399984130 63.2865
0506 1399986572 74.6264
0507 1399989013 98.0466
0508 1399991455 58.0986
0509 1399993896 53.6405
0510 1399996337 174.1089
0511 1399998779 485.4487
0512 1400001220 120.7104
0513 1400003662 59.0075
0514 1400006103 51.3525
0515 1400008544 50.2739
0516 1400010986 58.3112
0517 1400013427 59.9143
0518 1400015869 61.4237
0519 1400018310 48.8823
0520 1400020751 49.3943
0521 1400023193 50.7400
0522 1400025634 49.0155
0523 1400028076 48.0324
0524 1400030517 47.7545
0525 1400032958 47.0417
0526 1400035400 46.0841
0527 1400037841 46.2898
0528 1400040283 48.1370
0529 1400042724 47.0622
0530 1400045166 46.4293
0531 1400047607 47.4254
0532 1400050048 47.4209
0533 1400052490 45.7042
0534 1400054931 46.3848
0535 1400057373 47.0155
0536 1400059814 46.2545
0537 1400062255 45.5767
0538 1400064697 45.1494
0539 1400067138 45.7190
0540 1400069580 44.9504
0541 1400072021 45.9015
0542 1400074462 45.1227
0543 1400076904 44.9459
0544 1400079345 45.1930
0545 1400081787 45.2928
0546 1400084228 46.6725
0547 1400086669 58.7049
0548 1400089111 51.4284
0549 1400091552 45.6200
0550 1400093994 45.8317
0551 1400096435 45.7272
0552 1400098876 44.4987
0553 1400101318 44.3382
0554 1400103759 44.7324
0555 1400106201 45.2521
0556 1400108642 48.8864
0557 1400111083 47.6902
0558 1400113525 45.1975
0559 1400115966 45.4013
0560 1400118408 45.2159
0561 1400120849 44.0825
0562 1400123291 44.4438
0563 1400125732 44.9205
0564 1400128173 44.3906
0565 1400130615 44.3586
0566 1400133056 44.4675
0567 1400135498 43.8385
0568 1400137939 43.6012
0569 1400140380 43.4993
0570 1400142822 43.6542
0571 1400145263 43.4400
0572 1400147705 44.4812
0573 1400150146 43.8365
0574 1400152587 43.5639
0575 1400155029 45.3887
0576 1400157470 44.5010
0577 1400159912 43.5835
0578 1400162353 45.4718
0579 1400164794 44.1762
0580 1400167236 42.9467
0581 1400169677 43.8756
0582 1400172119 43.7296
0583 1400174560 42.8819
0584 1400177001 42.6769
0585 1400179443 42.8614
0586 1400181884 42.6630
0587 1400184326 42.6855
0588 1400186767 46.1230
0589 1400189208 43.5282
0590 1400191650 42.5743
0591 1400194091 42.8962
0592 1400196533 42.3240
0593 1400198974 41.8906
0594 1400201416 42.3618
0595 1400203857 41.7721
0596 1400206298 41.9919
0597 1400208740 42.7932
0598 1400211181 42.2277
0599 1400213623 41.6691
0600 1400216064 42.5024
0601 1400218505 42.4747
0602 1400220947 42.0808
0603 1400223388 42.4164
0604 1400225830 41.6130
0605 1400228271 41.2687
0606 1400230712 41.7422
0607 1400233154 41.8697
0608 1400235595 41.1095
0609 1400238037 40.9126
0610 1400240478 41.4454
0611 1400242919 40.8011
0612 1400245361 40.8539
0613 1400247802 40.4992
0614 1400250244 40.5627
0615 1400252685 41.0117
0616 1400255126 41.2641
0617 1400257568 41.7647
0618 1400260009 44.3619
0619 1400262451 40.9009
0620 1400264892 40.3007
0621 1400267333 40.1764
0622 1400269775 40.1384
0623 1400272216 39.7590
0624 1400274658 40.2051
0625 1400277099 41.6399
0626 1400279541 40.4786
0627 1400281982 40.6994
0628 1400284423 42.4437
0629 1400286865 44.3670
0630 1400289306 41.8561
0631 1400291748 41.9192
0632 1400294189 40.6329
0633 1400296630 39.8374
0634 1400299072 39.6001
0635 1400301513 40.5159
0636 1400303955 42.9715
0637 1400306396 40.4956
0638 1400308837 39.4408
0639 1400311279 38.9690
0640 1400313720 39.2118
0641 1400316162 39.3383
0642 1400318603 39.3118
0643 1400321044 39.5796
0644 1400323486 39.9266
0645 1400325927 38.5165
0646 1400328369 39.1781
0647 1400330810 39.8439
0648 1400333251 39.3261
0649 1400335693 39.0402
0650 1400338134 38.9387
0651 1400340576 39.0540
0652 1400343017 40.2266
0653 1400345458 40.6807
0654 1400347900 38.7410
0655 1400350341 38.6329
0656 1400352783 39.4933
0657 1400355224 38.8669
0658 1400357666 39.2737
0659 1400360107 38.2587
0660 1400362548 37.9237
0661 1400364990 38.1655
0662 1400367431 38.0831
0663 1400369873 37.9612
0664 1400372314 38.1256
0665 1400374755 38.5909
0666 1400377197 38.6182
0667 1400379638 39.4687
0668 1400382080 38.1763
0669 1400384521 38.9970
0670 1400386962 47.1130
0671 1400389404 41.7408
0672 1400391845 38.4512
0673 1400394287 37.9335
0674 1400396728 38.0426
0675 1400399169 38.5859
0676 1400401611 38.2818
0677 1400404052 38.0701
0678 1400406494 39.0459
0679 1400408935 38.0794
0680 1400411376 38.2766
0681 1400413818 39.9094
0682 1400416259 38.5716
0683 1400418701 37.3435
0684 1400421142 37.3553
0685 1400423583 37.2551
0686 1400426025 37.3791
0687 1400428466 37.5204
0688 1400430908 37.5419
0689 1400433349 37.4615
0690 1400435791 37.4194
0691 1400438232 36.8958
0692 1400440673 36.8934
0693 1400443115 37.8214
0694 1400445556 37.5455
0695 1400447998 37.1691
0696 1400450439 37.5506
0697 1400452880 37.6857
0698 1400455322 37.2450
0699 1400457763 37.9241
0700 1400460205 37.2455
0701 1400462646 37.6404
0702 1400465087 38.4872
0703 1400467529 38.7730
0704 1400469970 37.1985
0705 1400472412 37.6184
0706 1400474853 39.1372
0707 1400477294 37.5147
0708 1400479736 36.8192
0709 1400482177 37.1588
0710 1400484619 37.0838
0711 1400487060 37.1880
0712 1400489501 37.4907
0713 1400491943 37.7287
0714 1400494384 44.9815
0715 1400496826 45.5587
0716 1400499267 38.4563
0717 1400501708 36.8902
0718 1400504150 37.4174
0719 1400506591 37.4636
0720 1400509033 37.3215
0721 1400511474 37.4210
0722 1400513916 37.0761
0723 1400516357 37.2125
0724 1400518798 38.0530
0725 1400521240 37.7443
0726 1400523681 37.3442
0727 1400526123 38.8440
0728 1400528564 37.9657
0729 1400531005 37.9951
0730 1400533447 38.4797
0731 1400535888 39.1742
0732 1400538330 38.1180
0733 1400540771 37.8883
0734 1400543212 37.9883
0735 1400545654 37.0888
0736 1400548095 37.3038
0737 1400550537 38.0766
0738 1400552978 37.2840
0739 1400555419 37.7522
0740 1400557861 38.8008
0741 1400560302 37.7629
0742 1400562744 37.4826
0743 1400565185 37.9464
0744 1400567626 37.7457
0745 1400570068 37.8370
0746 1400572509 38.7895
0747 1400574951 38.4915
0748 1400577392 38.2797
0749 1400579833 38.2282
0750 1400582275 37.8561
0751 1400584716 38.4007
0752 1400587158 47.8062
0753 1400589599 40.7401
0754 1400592041 37.6144
0755 1400594482 40.4105
0756 1400596923 41.5643
0757 1400599365 38.0986
0758 1400601806 37.7398
0759 1400604248 37.8066
0760 1400606689 37.6592
0761 1400609130 38.2561
0762 1400611572 38.8629
0763 1400614013 37.9140
0764 1400616455 38.5086
0765 1400618896 38.5943
0766 1400621337 37.9210
0767 1400623779 38.2430
0768 1400626220 39.0295
0769 1400628662 38.0284
0770 1400631103 38.3507
0771 1400633544 38.7730
0772 1400635986 37.9383
0773 1400638427 38.2993
0774 1400640869 39.5678
0775 1400643310 38.8190
0776 1400645751 39.2649
0777 1400648193 40.1786
0778 1400650634 38.5000
0779 1400653076 38.6335
0780 1400655517 39.3467
0781 1400657958 39.1904
0782 1400660400 37.8920
0783 1400662841 38.5808
0784 1400665283 38.2971
0785 1400667724 38.0132
0786 1400670166 39.0344
0787 1400672607 42.5183
0788 1400675048 44.4649
0789 1400677490 39.5370
0790 1400679931 38.7727
0791 1400682373 38.0216
0792 1400684814 39.0047
0793 1400687255 42.7979
0794 1400689697 39.1388
0795 1400692138 39.9456
0796 1400694580 52.0291
0797 1400697021 44.6172
0798 1400699462 38.3559
0799 1400701904 38.4925
0800 1400704345 38.0603
0801 1400706787 38.6062
0802 1400709228 38.9367
0803 1400711669 38.2794
0804 1400714111 38.2139
0805 1400716552 41.2005
0806 1400718994 39.7765
0807 1400721435 38.7354
0808 1400723876 38.5972
0809 1400726318 38.4146
0810 1400728759 38.0654
0811 1400731201 38.6866
0812 1400733642 38.4064
0813 1400736083 37.8520
0814 1400738525 38.3373
0815 1400740966 38.6580
0816 1400743408 37.7470
0817 1400745849 38.3631
0818 1400748291 38.5297
0819 1400750732 37.8454
0820 1400753173 38.0804
0821 1400755615 38.0908
0822 1400758056 37.3725
0823 1400760498 37.6078
0824 1400762939 37.8347
0825 1400765380 37.5445
0826 1400767822 39.8723
0827 1400770263 38.8792
0828 1400772705 37.4446
0829 1400775146 37.5307
0830 1400777587 40.6392
0831 1400780029 38.9668
0832 1400782470 37.2313
0833 1400784912 37.5358
0834 1400787353 39.6197
0835 1400789794 37.8486
0836 1400792236 37.3329
0837 1400794677 36.7843
0838 1400797119 36.7188
0839 1400799560 37.3417
0840 1400802001 37.0038
0841 1400804443 36.3160
0842 1400806884 36.5499
0843 1400809326 36.3796
0844 1400811767 35.9623
0845 1400814208 36.4444
0846 1400816650 36.5971
0847 1400819091 36.6000
0848 1400821533 45.3842
0849 1400823974 53.3278
0850 1400826416 36.3878
0851 1400828857 36.2074
0852 1400831298 35.7525
0853 1400833740 35.4280
0854 1400836181 35.6975
0855 1400838623 36.2292
0856 1400841064 35.0534
0857 1400843505 34.8154
0858 1400845947 34.8075
0859 1400848388 34.5055
0860 1400850830 34.2180
0861 1400853271 34.9088
0862 1400855712 34.6525
0863 1400858154 34.5937
0864 1400860595 34.0773
0865 1400863037 33.8859
0866 1400865478 33.9716
0867 1400867919 35.0691
0868 1400870361 33.9286
0869 1400872802 33.4954
0870 1400875244 33.5419
0871 1400877685 33.3987
0872 1400880126 33.8182
0873 1400882568 33.3070
0874 1400885009 35.1597
0875 1400887451 41.7227
0876 1400889892 35.7443
0877 1400892333 32.7487
0878 1400894775 31.7136
0879 1400897216 32.0887
0880 1400899658 33.3566
0881 1400902099 31.4423
0882 1400904541 31.2454
0883 1400906982 31.0487
0884 1400909423 30.8583
0885 1400911865 30.8023
0886 1400914306 30.3039
0887 1400916748 30.0703
0888 1400919189 29.8878
0889 1400921630 29.9132
0890 1400924072 29.5670
0891 1400926513 29.8313
0892 1400928955 30.5323
0893 1400931396 29.5687
0894 1400933837 29.2423
0895 1400936279 28.6925
0896 1400938720 28.5601
0897 1400941162 28.4651
0898 1400943603 28.9706
0899 1400946044 28.6087
0900 1400948486 28.1053
0901 1400950927 28.5709
0902 1400953369 27.8256
0903 1400955810 27.0203
0904 1400958251 27.5350
0905 1400960693 27.9489
0906 1400963134 27.0362
0907 1400965576 27.9810
0908 1400968017 26.5774
0909 1400970458 25.9587
0910 1400972900 25.9474
0911 1400975341 25.8689
0912 1400977783 25.4019
0913 1400980224 25.1294
0914 1400982666 24.6693
0915 1400985107 24.5137
0916 1400987548 24.5364
0917 1400989990 24.0532
0918 1400992431 24.0255
0919 1400994873 23.7618
0920 1400997314 23.6918
0921 1400999755 23.0438
0922 1401002197 23.0830
0923 1401004638 22.9705
0924 1401007080 22.5565
0925 1401009521 22.9200
0926 1401011962 22.9650
0927 1401014404 21.8676
0928 1401016845 21.7476
0929 1401019287 22.4461
0930 1401021728 22.1195
0931 1401024169 21.1815
0932 1401026611 21.1750
0933 1401029052 20.7749
0934 1401031494 20.3559
0935 1401033935 20.0276
0936 1401036376 19.7711
0937 1401038818 19.5248
0938 1401041259 19.3285
0939 1401043701 19.5231
0940 1401046142 19.2002
0941 1401048583 18.9218
0942 1401051025 18.7275
0943 1401053466 18.4196
0944 1401055908 18.4525
0945 1401058349 18.0842
0946 1401060791 17.5595
0947 1401063232 17.7123
0948 1401065673 17.7565
0949 1401068115 17.2827
0950 1401070556 17.0393
0951 1401072998 16.9877
0952 1401075439 16.3387
0953 1401077880 16.2983
0954 1401080322 16.5970
0955 1401082763 16.4538
0956 1401085205 16.7007
0957 1401087646 19.3292
0958 1401090087 15.7300
0959 1401092529 14.9906
0960 1401094970 14.9766
0961 1401097412 14.7862
0962 1401099853 14.4679
0963 1401102294 14.3752
0964 1401104736 14.2413
0965 1401107177 14.0414
0966 1401109619 13.9675
0967 1401112060 13.8171
0968 1401114501 13.3640
0969 1401116943 13.4947
0970 1401119384 13.2738
0971 1401121826 13.1465
0972 1401124267 13.2043
0973 1401126708 12.9531
0974 1401129150 12.7711
0975 1401131591 12.8503
0976 1401134033 12.6306
0977 1401136474 12.1147
0978 1401138916 11.6147
0979 1401141357 11.8509
0980 1401143798 11.6076
0981 1401146240 11.3734
0982 1401148681 11.3502
0983 1401151123 11.0419
0984 1401153564 10.9781
0985 1401156005 11.0188
0986 1401158447 10.6726
0987 1401160888 10.4495
0988 1401163330 10.4064
0989 1401165771 10.2884
0990 1401168212 10.1440
0991 1401170654 10.0515
0992 1401173095 10.0842
0993 1401175537 9.9363
0994 1401177978 9.8005
0995 1401180419 9.8040
0996 1401182861 9.6379
0997 1401185302 9.8358
0998 1401187744 10.6477
0999 1401190185 9.4685
1000 1401192626 9.1592
1001 1401195068 9.1869
1002 1401197509 10.8063
1003 1401199951 10.5632
1004 1401202392 9.2086
1005 1401204833 8.8127
1006 1401207275 8.6362
1007 1401209716 8.5916
1008 1401212158 8.5798
1009 1401214599 8.5907
1010 1401217041 8.4052
1011 1401219482 8.3162
1012 1401221923 8.2577
1013 1401224365 8.1627
1014 1401226806 8.2017
1015 1401229248 8.0206
1016 1401231689 8.0429
1017 1401234130 7.9705
1018 1401236572 7.9615
1019 1401239013 7.9639
1020 1401241455 8.0609
1021 1401243896 7.9985
1022 1401246337 7.9984
1023 1401248779 8.0652
