# File: 20-05-31T223320.hot
# NOTEA     = None Attached.  RTLSDR Dongle Test
# NOTEB     = Spectral Integration
# OBSERVER  = Science Aficionado
# DEVICE    = rtlsdr=0
# DATADIR   = ../data/
# SITE      = None Attached.  RTLSDR Dongle Test
# CITY      = Green Bank
# REGION    = West Virginia
# COUNTRY   = US
# TELTYPE   = Bubble Wrap  Horn
# FRAME     = TOPO
# GAIN1     = 49.0
# GAIN2     = 11.0
# GAIN3     = 11.0
# GAIN4     = 0.0
# Count     = 10000
# CenterFreq= 1400000000.0
# Bandwidth = 2500000.0
# Duration  = 41.754345
# DeltaX    = 5859.375
# TSYS      = 200.0
# TRX       = 100.0
# TRMS      = 2.0
# TINT      = 1.0
# KPERC     = 100.0
# GAINFACT  = 1.0
# BUNIT     = Counts
# NCHAN     = 1024
# NSPEC     = 1
# NTIME     = 0
# NSAMPLES  = 0
# EPEAK     = 4.10875183718
# ERMS      = 0.995973393526
# EMJD      = 58568.808999981004 
# REFCHAN   = 512.0
# REFSAMPL  = 256.0
# NAVE      = 100
# NMEDIAN   = 1024
# Fft_rate  = 5000
# UTC       = 2020-05-31 22:33:20.024454
# SECONDS   =       0.0000000000 
# LST       = 09:53:28.810
# AZ        = 180.0
# EL        = -90.0
# TELLON    = -79:50:22.920
# TELLAT    = +38:25:59.160
# RA        = 21:51:01.190
# DEC       = -38:37:37.800
# GALLON    = 04:08:22.80
# GALLAT    = -50:50:24.70
# ALT_SUN   = +21:51:37.9
# AZ_SUN    = +281:29:06.9
# ETAA      = 0.8
# ETAB      = 0.99
# POLANGLE  = 0.0
# TELSIZEAM = 1.0
# TELSIZEBM = 1.0
# AST_VERS  = 05.01
0000 1398751220 7.7068
0001 1398753662 7.5690
0002 1398756103 7.6542
0003 1398758544 7.7403
0004 1398760986 7.6258
0005 1398763427 7.6986
0006 1398765869 7.5934
0007 1398768310 7.5711
0008 1398770751 7.5952
0009 1398773193 7.6493
0010 1398775634 7.9034
0011 1398778076 7.7684
0012 1398780517 7.7212
0013 1398782958 7.7670
0014 1398785400 7.8303
0015 1398787841 8.3592
0016 1398790283 8.0057
0017 1398792724 7.8571
0018 1398795166 8.0303
0019 1398797607 9.3548
0020 1398800048 9.1956
0021 1398802490 8.1612
0022 1398804931 8.2520
0023 1398807373 8.2195
0024 1398809814 8.2653
0025 1398812255 8.4511
0026 1398814697 8.6910
0027 1398817138 8.5706
0028 1398819580 8.6780
0029 1398822021 8.7794
0030 1398824462 8.8451
0031 1398826904 8.9216
0032 1398829345 8.9447
0033 1398831787 9.0501
0034 1398834228 9.3320
0035 1398836669 9.6399
0036 1398839111 9.3897
0037 1398841552 9.4603
0038 1398843994 9.6859
0039 1398846435 9.6803
0040 1398848876 9.8079
0041 1398851318 10.0028
0042 1398853759 10.0527
0043 1398856201 10.2324
0044 1398858642 10.3462
0045 1398861083 10.3500
0046 1398863525 10.5309
0047 1398865966 10.8505
0048 1398868408 10.9757
0049 1398870849 11.0083
0050 1398873291 11.2347
0051 1398875732 11.2706
0052 1398878173 11.3248
0053 1398880615 11.5569
0054 1398883056 11.6115
0055 1398885498 12.0622
0056 1398887939 13.1351
0057 1398890380 12.3747
0058 1398892822 12.4075
0059 1398895263 13.0266
0060 1398897705 13.4992
0061 1398900146 13.0857
0062 1398902587 13.0475
0063 1398905029 13.2134
0064 1398907470 13.4742
0065 1398909912 13.5250
0066 1398912353 13.9874
0067 1398914794 14.3629
0068 1398917236 14.3505
0069 1398919677 14.5049
0070 1398922119 14.3862
0071 1398924560 14.6824
0072 1398927001 15.0180
0073 1398929443 14.9836
0074 1398931884 15.2820
0075 1398934326 15.2404
0076 1398936767 15.4893
0077 1398939208 15.6373
0078 1398941650 16.0217
0079 1398944091 16.1862
0080 1398946533 16.3085
0081 1398948974 16.5897
0082 1398951416 16.7020
0083 1398953857 16.9642
0084 1398956298 17.7756
0085 1398958740 17.7861
0086 1398961181 17.5903
0087 1398963623 17.5599
0088 1398966064 18.1750
0089 1398968505 18.1739
0090 1398970947 18.3974
0091 1398973388 18.9011
0092 1398975830 18.4369
0093 1398978271 18.7832
0094 1398980712 19.2694
0095 1398983154 19.1318
0096 1398985595 20.0607
0097 1398988037 22.2270
0098 1398990478 20.2382
0099 1398992919 20.0879
0100 1398995361 20.3901
0101 1398997802 20.2955
0102 1399000244 20.7115
0103 1399002685 21.1895
0104 1399005126 21.2464
0105 1399007568 21.7063
0106 1399010009 22.3431
0107 1399012451 21.9010
0108 1399014892 21.8036
0109 1399017333 22.9719
0110 1399019775 22.6482
0111 1399022216 22.5669
0112 1399024658 23.2060
0113 1399027099 23.1482
0114 1399029541 23.3621
0115 1399031982 23.6054
0116 1399034423 23.6834
0117 1399036865 23.6777
0118 1399039306 24.0625
0119 1399041748 24.0492
0120 1399044189 24.5302
0121 1399046630 24.4272
0122 1399049072 24.5529
0123 1399051513 24.5662
0124 1399053955 25.0435
0125 1399056396 25.5275
0126 1399058837 25.2282
0127 1399061279 25.7369
0128 1399063720 26.2948
0129 1399066162 25.4925
0130 1399068603 25.6843
0131 1399071044 26.0868
0132 1399073486 26.2197
0133 1399075927 26.5469
0134 1399078369 27.6490
0135 1399080810 26.6547
0136 1399083251 26.9550
0137 1399085693 27.7998
0138 1399088134 28.7119
0139 1399090576 27.7865
0140 1399093017 28.2732
0141 1399095458 28.6513
0142 1399097900 28.0009
0143 1399100341 28.2770
0144 1399102783 28.1558
0145 1399105224 28.2074
0146 1399107666 28.8382
0147 1399110107 28.7051
0148 1399112548 28.6065
0149 1399114990 28.8864
0150 1399117431 29.4680
0151 1399119873 29.7221
0152 1399122314 29.7538
0153 1399124755 29.5845
0154 1399127197 29.3584
0155 1399129638 30.1391
0156 1399132080 30.1693
0157 1399134521 30.5625
0158 1399136962 31.0809
0159 1399139404 32.1695
0160 1399141845 30.8255
0161 1399144287 30.9303
0162 1399146728 31.0762
0163 1399149169 31.2069
0164 1399151611 31.3911
0165 1399154052 31.7820
0166 1399156494 31.5978
0167 1399158935 31.3754
0168 1399161376 31.9085
0169 1399163818 31.6067
0170 1399166259 32.0745
0171 1399168701 32.5715
0172 1399171142 32.2834
0173 1399173583 32.1817
0174 1399176025 32.1945
0175 1399178466 32.2054
0176 1399180908 32.7569
0177 1399183349 32.7340
0178 1399185791 33.3707
0179 1399188232 34.4100
0180 1399190673 34.4060
0181 1399193115 33.3319
0182 1399195556 32.4010
0183 1399197998 33.8757
0184 1399200439 34.8189
0185 1399202880 32.9335
0186 1399205322 33.2587
0187 1399207763 33.8192
0188 1399210205 33.9740
0189 1399212646 33.9256
0190 1399215087 33.9362
0191 1399217529 33.3096
0192 1399219970 33.8791
0193 1399222412 34.4335
0194 1399224853 33.5583
0195 1399227294 33.6490
0196 1399229736 33.9287
0197 1399232177 34.0719
0198 1399234619 34.1997
0199 1399237060 34.4888
0200 1399239501 34.0366
0201 1399241943 34.5566
0202 1399244384 35.3564
0203 1399246826 34.8023
0204 1399249267 34.0728
0205 1399251708 34.5898
0206 1399254150 34.9352
0207 1399256591 34.8296
0208 1399259033 35.6395
0209 1399261474 35.3967
0210 1399263916 34.6581
0211 1399266357 34.4403
0212 1399268798 35.3258
0213 1399271240 34.7096
0214 1399273681 35.3184
0215 1399276123 35.3374
0216 1399278564 34.4969
0217 1399281005 34.6988
0218 1399283447 34.6363
0219 1399285888 37.0386
0220 1399288330 39.2607
0221 1399290771 35.2178
0222 1399293212 34.9989
0223 1399295654 35.2221
0224 1399298095 35.4174
0225 1399300537 34.8976
0226 1399302978 34.9303
0227 1399305419 35.5520
0228 1399307861 35.5361
0229 1399310302 34.9498
0230 1399312744 36.2621
0231 1399315185 36.0144
0232 1399317626 35.2288
0233 1399320068 36.1244
0234 1399322509 35.9718
0235 1399324951 34.8281
0236 1399327392 35.2925
0237 1399329833 36.0665
0238 1399332275 36.4361
0239 1399334716 35.6383
0240 1399337158 35.8473
0241 1399339599 35.2421
0242 1399342041 35.4730
0243 1399344482 35.6770
0244 1399346923 35.0586
0245 1399349365 35.0387
0246 1399351806 35.7701
0247 1399354248 35.1093
0248 1399356689 35.2014
0249 1399359130 34.8827
0250 1399361572 34.8491
0251 1399364013 35.3431
0252 1399366455 35.6859
0253 1399368896 35.7831
0254 1399371337 35.8024
0255 1399373779 36.4766
0256 1399376220 35.3014
0257 1399378662 35.2219
0258 1399381103 36.2181
0259 1399383544 35.0778
0260 1399385986 35.1063
0261 1399388427 35.7247
0262 1399390869 35.5319
0263 1399393310 35.5491
0264 1399395751 35.2957
0265 1399398193 35.2277
0266 1399400634 35.3910
0267 1399403076 35.4952
0268 1399405517 35.0983
0269 1399407958 34.9537
0270 1399410400 35.1187
0271 1399412841 35.4379
0272 1399415283 34.6629
0273 1399417724 34.8155
0274 1399420166 35.3770
0275 1399422607 35.0670
0276 1399425048 34.6370
0277 1399427490 35.0734
0278 1399429931 34.8003
0279 1399432373 35.3466
0280 1399434814 36.0422
0281 1399437255 34.3080
0282 1399439697 34.6848
0283 1399442138 36.7977
0284 1399444580 35.0326
0285 1399447021 34.5537
0286 1399449462 34.9657
0287 1399451904 35.4699
0288 1399454345 35.1136
0289 1399456787 35.1246
0290 1399459228 34.6433
0291 1399461669 34.6134
0292 1399464111 34.5689
0293 1399466552 34.9825
0294 1399468994 34.6133
0295 1399471435 34.6950
0296 1399473876 35.1545
0297 1399476318 34.6485
0298 1399478759 34.9574
0299 1399481201 34.4266
0300 1399483642 34.8955
0301 1399486083 36.4291
0302 1399488525 36.8282
0303 1399490966 34.3328
0304 1399493408 35.0996
0305 1399495849 36.1574
0306 1399498291 35.3944
0307 1399500732 35.8955
0308 1399503173 36.2134
0309 1399505615 35.4016
0310 1399508056 34.8488
0311 1399510498 34.8917
0312 1399512939 34.7859
0313 1399515380 34.4419
0314 1399517822 34.8737
0315 1399520263 34.9451
0316 1399522705 34.8586
0317 1399525146 34.8827
0318 1399527587 34.7146
0319 1399530029 34.9353
0320 1399532470 35.6972
0321 1399534912 34.7665
0322 1399537353 34.5674
0323 1399539794 35.5733
0324 1399542236 34.8970
0325 1399544677 34.6653
0326 1399547119 35.0462
0327 1399549560 35.3750
0328 1399552001 34.6146
0329 1399554443 35.9009
0330 1399556884 36.5290
0331 1399559326 35.1274
0332 1399561767 35.9688
0333 1399564208 36.7896
0334 1399566650 34.8190
0335 1399569091 34.8042
0336 1399571533 35.7140
0337 1399573974 34.8242
0338 1399576416 34.9657
0339 1399578857 34.9950
0340 1399581298 34.8507
0341 1399583740 34.8505
0342 1399586181 37.5598
0343 1399588623 38.3745
0344 1399591064 35.9201
0345 1399593505 35.8647
0346 1399595947 35.4908
0347 1399598388 34.8415
0348 1399600830 35.1932
0349 1399603271 35.6115
0350 1399605712 35.6346
0351 1399608154 35.6036
0352 1399610595 35.5441
0353 1399613037 34.9668
0354 1399615478 36.3555
0355 1399617919 36.2708
0356 1399620361 36.4622
0357 1399622802 36.9825
0358 1399625244 37.1689
0359 1399627685 35.7397
0360 1399630126 36.4699
0361 1399632568 37.1563
0362 1399635009 36.3041
0363 1399637451 36.4637
0364 1399639892 36.1147
0365 1399642333 35.7505
0366 1399644775 36.3222
0367 1399647216 36.1278
0368 1399649658 35.9198
0369 1399652099 36.8601
0370 1399654541 36.9293
0371 1399656982 36.1198
0372 1399659423 36.4746
0373 1399661865 36.6766
0374 1399664306 36.6507
0375 1399666748 36.5263
0376 1399669189 37.1356
0377 1399671630 37.2102
0378 1399674072 36.7330
0379 1399676513 40.4326
0380 1399678955 39.3167
0381 1399681396 38.3197
0382 1399683837 38.7672
0383 1399686279 38.6885
0384 1399688720 37.3969
0385 1399691162 37.3887
0386 1399693603 37.6915
0387 1399696044 37.0636
0388 1399698486 37.5879
0389 1399700927 38.1656
0390 1399703369 37.2184
0391 1399705810 37.4011
0392 1399708251 37.4763
0393 1399710693 37.3823
0394 1399713134 37.4610
0395 1399715576 38.0103
0396 1399718017 37.7439
0397 1399720458 39.5767
0398 1399722900 38.7835
0399 1399725341 38.2576
0400 1399727783 38.4618
0401 1399730224 38.2831
0402 1399732666 37.7918
0403 1399735107 37.9591
0404 1399737548 38.5078
0405 1399739990 38.2958
0406 1399742431 38.9860
0407 1399744873 40.0990
0408 1399747314 40.3516
0409 1399749755 48.8211
0410 1399752197 44.0736
0411 1399754638 38.7134
0412 1399757080 38.8541
0413 1399759521 38.6309
0414 1399761962 38.6859
0415 1399764404 38.5809
0416 1399766845 38.8295
0417 1399769287 39.3094
0418 1399771728 39.0656
0419 1399774169 39.2129
0420 1399776611 40.0735
0421 1399779052 39.9785
0422 1399781494 40.1622
0423 1399783935 39.4768
0424 1399786376 42.4633
0425 1399788818 42.2382
0426 1399791259 41.1160
0427 1399793701 42.5513
0428 1399796142 40.1649
0429 1399798583 40.4623
0430 1399801025 40.2983
0431 1399803466 40.8644
0432 1399805908 41.5124
0433 1399808349 41.6657
0434 1399810791 40.6111
0435 1399813232 41.1698
0436 1399815673 40.3762
0437 1399818115 40.4640
0438 1399820556 40.7661
0439 1399822998 41.3113
0440 1399825439 41.1293
0441 1399827880 41.2818
0442 1399830322 41.7314
0443 1399832763 41.4810
0444 1399835205 41.3438
0445 1399837646 40.8781
0446 1399840087 41.3281
0447 1399842529 42.5569
0448 1399844970 42.6468
0449 1399847412 41.7300
0450 1399849853 41.3096
0451 1399852294 41.5624
0452 1399854736 41.2820
0453 1399857177 42.4014
0454 1399859619 42.2572
0455 1399862060 42.0661
0456 1399864501 41.9348
0457 1399866943 43.9461
0458 1399869384 42.5666
0459 1399871826 42.5538
0460 1399874267 42.9911
0461 1399876708 41.6548
0462 1399879150 41.9275
0463 1399881591 42.8950
0464 1399884033 42.7186
0465 1399886474 44.9022
0466 1399888916 44.7413
0467 1399891357 42.2279
0468 1399893798 42.9847
0469 1399896240 44.1075
0470 1399898681 44.0465
0471 1399901123 43.1612
0472 1399903564 43.0302
0473 1399906005 43.1459
0474 1399908447 42.2462
0475 1399910888 43.1374
0476 1399913330 43.1577
0477 1399915771 42.7189
0478 1399918212 43.0661
0479 1399920654 43.5571
0480 1399923095 43.9935
0481 1399925537 42.9812
0482 1399927978 44.0442
0483 1399930419 43.9402
0484 1399932861 46.1268
0485 1399935302 46.0296
0486 1399937744 43.7638
0487 1399940185 43.6596
0488 1399942626 43.8374
0489 1399945068 43.9251
0490 1399947509 43.2154
0491 1399949951 44.5847
0492 1399952392 44.5046
0493 1399954833 44.3832
0494 1399957275 45.0100
0495 1399959716 44.5441
0496 1399962158 44.2015
0497 1399964599 44.5558
0498 1399967041 44.9860
0499 1399969482 44.5672
0500 1399971923 45.0460
0501 1399974365 48.9841
0502 1399976806 48.7893
0503 1399979248 51.8223
0504 1399981689 73.8344
0505 1399984130 59.2277
0506 1399986572 60.6629
0507 1399989013 76.0569
0508 1399991455 51.2105
0509 1399993896 49.7057
0510 1399996337 122.1297
0511 1399998779 376.4144
0512 1400001220 105.8829
0513 1400003662 54.3477
0514 1400006103 48.9083
0515 1400008544 46.4013
0516 1400010986 47.1595
0517 1400013427 73.7553
0518 1400015869 84.8741
0519 1400018310 46.5793
0520 1400020751 46.3194
0521 1400023193 48.1870
0522 1400025634 46.7866
0523 1400028076 45.7751
0524 1400030517 45.1203
0525 1400032958 44.5952
0526 1400035400 44.4200
0527 1400037841 44.2582
0528 1400040283 45.7680
0529 1400042724 45.5499
0530 1400045166 44.1228
0531 1400047607 44.9102
0532 1400050048 44.8122
0533 1400052490 44.0892
0534 1400054931 44.8031
0535 1400057373 44.7563
0536 1400059814 44.1892
0537 1400062255 43.5903
0538 1400064697 43.2761
0539 1400067138 43.0836
0540 1400069580 43.1830
0541 1400072021 43.7292
0542 1400074462 43.2676
0543 1400076904 42.8486
0544 1400079345 42.7377
0545 1400081787 42.7925
0546 1400084228 44.1587
0547 1400086669 49.9898
0548 1400089111 46.5915
0549 1400091552 43.3111
0550 1400093994 43.9288
0551 1400096435 43.7537
0552 1400098876 42.8567
0553 1400101318 42.3314
0554 1400103759 42.5075
0555 1400106201 42.8370
0556 1400108642 43.8448
0557 1400111083 44.6680
0558 1400113525 42.8567
0559 1400115966 43.0680
0560 1400118408 43.4531
0561 1400120849 42.4414
0562 1400123291 42.2933
0563 1400125732 42.9116
0564 1400128173 42.6719
0565 1400130615 42.2832
0566 1400133056 42.1631
0567 1400135498 41.7234
0568 1400137939 41.7583
0569 1400140380 41.4674
0570 1400142822 41.8785
0571 1400145263 41.9556
0572 1400147705 42.2995
0573 1400150146 41.5842
0574 1400152587 41.6859
0575 1400155029 42.7378
0576 1400157470 42.1124
0577 1400159912 41.7014
0578 1400162353 43.5537
0579 1400164794 42.5457
0580 1400167236 41.6617
0581 1400169677 42.0304
0582 1400172119 42.1635
0583 1400174560 41.3574
0584 1400177001 41.3399
0585 1400179443 40.9933
0586 1400181884 40.6335
0587 1400184326 40.8007
0588 1400186767 43.0941
0589 1400189208 41.9217
0590 1400191650 40.8129
0591 1400194091 40.9979
0592 1400196533 40.8973
0593 1400198974 40.4597
0594 1400201416 41.0397
0595 1400203857 40.4643
0596 1400206298 40.1108
0597 1400208740 41.4809
0598 1400211181 40.6485
0599 1400213623 40.0252
0600 1400216064 40.3183
0601 1400218505 40.2203
0602 1400220947 40.2754
0603 1400223388 40.5879
0604 1400225830 40.2502
0605 1400228271 39.3515
0606 1400230712 39.9149
0607 1400233154 40.3311
0608 1400235595 39.9964
0609 1400238037 39.7761
0610 1400240478 39.4252
0611 1400242919 39.3163
0612 1400245361 39.6180
0613 1400247802 39.3953
0614 1400250244 39.4326
0615 1400252685 39.4991
0616 1400255126 39.6446
0617 1400257568 41.1538
0618 1400260009 46.6492
0619 1400262451 40.0185
0620 1400264892 38.6299
0621 1400267333 38.8520
0622 1400269775 38.4785
0623 1400272216 38.5035
0624 1400274658 38.6158
0625 1400277099 39.5385
0626 1400279541 39.0018
0627 1400281982 38.9004
0628 1400284423 40.9747
0629 1400286865 40.8378
0630 1400289306 38.9991
0631 1400291748 40.0965
0632 1400294189 39.0531
0633 1400296630 38.3701
0634 1400299072 38.3883
0635 1400301513 38.5536
0636 1400303955 39.0124
0637 1400306396 38.2619
0638 1400308837 38.0959
0639 1400311279 37.7117
0640 1400313720 37.7186
0641 1400316162 37.5530
0642 1400318603 37.3307
0643 1400321044 37.7891
0644 1400323486 37.8989
0645 1400325927 37.7799
0646 1400328369 37.7478
0647 1400330810 38.4471
0648 1400333251 37.3857
0649 1400335693 37.4660
0650 1400338134 37.2113
0651 1400340576 36.8395
0652 1400343017 37.6355
0653 1400345458 39.1816
0654 1400347900 37.0107
0655 1400350341 36.9263
0656 1400352783 37.5547
0657 1400355224 37.5394
0658 1400357666 37.2958
0659 1400360107 37.0376
0660 1400362548 36.7886
0661 1400364990 36.3218
0662 1400367431 36.5173
0663 1400369873 36.7779
0664 1400372314 36.1063
0665 1400374755 36.8987
0666 1400377197 36.6942
0667 1400379638 37.4446
0668 1400382080 36.4786
0669 1400384521 36.7985
0670 1400386962 40.2464
0671 1400389404 38.8392
0672 1400391845 36.7663
0673 1400394287 36.4049
0674 1400396728 36.6166
0675 1400399169 36.8368
0676 1400401611 36.6486
0677 1400404052 36.5340
0678 1400406494 37.2776
0679 1400408935 36.5239
0680 1400411376 36.4201
0681 1400413818 38.0131
0682 1400416259 36.7082
0683 1400418701 35.9785
0684 1400421142 35.9456
0685 1400423583 36.0791
0686 1400426025 35.6809
0687 1400428466 35.8467
0688 1400430908 36.2196
0689 1400433349 35.8090
0690 1400435791 35.5688
0691 1400438232 35.7831
0692 1400440673 35.6824
0693 1400443115 36.3289
0694 1400445556 36.0399
0695 1400447998 35.6920
0696 1400450439 35.7608
0697 1400452880 36.1899
0698 1400455322 36.0450
0699 1400457763 36.2789
0700 1400460205 35.9326
0701 1400462646 35.3977
0702 1400465087 36.6643
0703 1400467529 37.0912
0704 1400469970 35.5706
0705 1400472412 35.7892
0706 1400474853 37.1820
0707 1400477294 35.6820
0708 1400479736 35.7083
0709 1400482177 36.0857
0710 1400484619 35.6929
0711 1400487060 35.9825
0712 1400489501 36.1842
0713 1400491943 35.4290
0714 1400494384 37.2598
0715 1400496826 42.3884
0716 1400499267 38.8107
0717 1400501708 36.2280
0718 1400504150 35.6567
0719 1400506591 35.8922
0720 1400509033 36.0174
0721 1400511474 36.1432
0722 1400513916 35.8209
0723 1400516357 36.1309
0724 1400518798 36.6927
0725 1400521240 37.0731
0726 1400523681 36.2643
0727 1400526123 37.5914
0728 1400528564 36.6618
0729 1400531005 35.9561
0730 1400533447 36.8468
0731 1400535888 37.4683
0732 1400538330 36.6191
0733 1400540771 36.6468
0734 1400543212 36.7936
0735 1400545654 36.1847
0736 1400548095 36.3899
0737 1400550537 37.2624
0738 1400552978 36.2585
0739 1400555419 36.3981
0740 1400557861 37.1593
0741 1400560302 36.5762
0742 1400562744 36.4759
0743 1400565185 36.6974
0744 1400567626 36.2048
0745 1400570068 36.6796
0746 1400572509 37.2530
0747 1400574951 36.4732
0748 1400577392 36.3937
0749 1400579833 36.3192
0750 1400582275 36.7688
0751 1400584716 36.9669
0752 1400587158 41.9470
0753 1400589599 38.9067
0754 1400592041 36.4764
0755 1400594482 38.8413
0756 1400596923 40.2041
0757 1400599365 36.7965
0758 1400601806 36.7011
0759 1400604248 36.6756
0760 1400606689 36.4352
0761 1400609130 37.1689
0762 1400611572 37.1986
0763 1400614013 36.8128
0764 1400616455 36.4787
0765 1400618896 37.3873
0766 1400621337 36.8913
0767 1400623779 37.3668
0768 1400626220 37.9040
0769 1400628662 36.9731
0770 1400631103 37.3594
0771 1400633544 37.2058
0772 1400635986 36.4332
0773 1400638427 37.0607
0774 1400640869 38.1726
0775 1400643310 37.0401
0776 1400645751 37.7689
0777 1400648193 38.6190
0778 1400650634 37.2068
0779 1400653076 37.3553
0780 1400655517 37.8506
0781 1400657958 38.0490
0782 1400660400 37.2784
0783 1400662841 37.9781
0784 1400665283 37.1845
0785 1400667724 37.0711
0786 1400670166 37.4701
0787 1400672607 42.4002
0788 1400675048 49.6520
0789 1400677490 38.5234
0790 1400679931 37.7309
0791 1400682373 36.9269
0792 1400684814 37.6204
0793 1400687255 39.4138
0794 1400689697 37.7186
0795 1400692138 38.9483
0796 1400694580 60.5946
0797 1400697021 48.3222
0798 1400699462 37.1864
0799 1400701904 37.2766
0800 1400704345 36.7851
0801 1400706787 37.1627
0802 1400709228 37.9207
0803 1400711669 37.1341
0804 1400714111 37.4143
0805 1400716552 40.1673
0806 1400718994 38.8204
0807 1400721435 37.2901
0808 1400723876 37.6060
0809 1400726318 36.4712
0810 1400728759 37.0443
0811 1400731201 37.0501
0812 1400733642 37.0852
0813 1400736083 36.6018
0814 1400738525 36.8891
0815 1400740966 36.6901
0816 1400743408 35.9082
0817 1400745849 36.8095
0818 1400748291 37.0189
0819 1400750732 36.8409
0820 1400753173 36.9299
0821 1400755615 36.3519
0822 1400758056 36.3377
0823 1400760498 36.3935
0824 1400762939 36.7756
0825 1400765380 36.5201
0826 1400767822 39.1155
0827 1400770263 38.1758
0828 1400772705 36.1725
0829 1400775146 36.2571
0830 1400777587 38.7294
0831 1400780029 36.8019
0832 1400782470 35.4155
0833 1400784912 35.8445
0834 1400787353 37.2499
0835 1400789794 35.8239
0836 1400792236 35.6058
0837 1400794677 35.3520
0838 1400797119 35.4342
0839 1400799560 35.6634
0840 1400802001 35.2673
0841 1400804443 35.0898
0842 1400806884 35.2131
0843 1400809326 35.4105
0844 1400811767 34.7318
0845 1400814208 35.1923
0846 1400816650 35.0384
0847 1400819091 35.2379
0848 1400821533 38.1939
0849 1400823974 40.5378
0850 1400826416 34.5852
0851 1400828857 35.4278
0852 1400831298 35.0815
0853 1400833740 33.9604
0854 1400836181 33.8594
0855 1400838623 35.2120
0856 1400841064 34.3255
0857 1400843505 33.8776
0858 1400845947 33.6129
0859 1400848388 33.0206
0860 1400850830 33.3613
0861 1400853271 33.3367
0862 1400855712 33.2166
0863 1400858154 33.0275
0864 1400860595 32.6964
0865 1400863037 32.7536
0866 1400865478 32.6052
0867 1400867919 33.2475
0868 1400870361 32.4987
0869 1400872802 32.1548
0870 1400875244 32.4190
0871 1400877685 32.3587
0872 1400880126 31.7107
0873 1400882568 31.7879
0874 1400885009 32.2321
0875 1400887451 35.6456
0876 1400889892 32.6363
0877 1400892333 31.6945
0878 1400894775 30.9203
0879 1400897216 31.2401
0880 1400899658 32.0246
0881 1400902099 30.4663
0882 1400904541 30.5314
0883 1400906982 30.1338
0884 1400909423 29.9236
0885 1400911865 29.6876
0886 1400914306 29.5650
0887 1400916748 29.2747
0888 1400919189 29.1056
0889 1400921630 29.2047
0890 1400924072 28.6083
0891 1400926513 29.0320
0892 1400928955 29.1230
0893 1400931396 28.5494
0894 1400933837 28.1287
0895 1400936279 27.8243
0896 1400938720 27.6552
0897 1400941162 27.3382
0898 1400943603 27.7385
0899 1400946044 27.3582
0900 1400948486 27.4047
0901 1400950927 27.6693
0902 1400953369 26.9527
0903 1400955810 26.4845
0904 1400958251 26.7996
0905 1400960693 26.9714
0906 1400963134 26.0439
0907 1400965576 26.1001
0908 1400968017 25.6588
0909 1400970458 25.0162
0910 1400972900 24.9981
0911 1400975341 24.9862
0912 1400977783 24.5970
0913 1400980224 24.1227
0914 1400982666 24.0479
0915 1400985107 23.6217
0916 1400987548 23.6434
0917 1400989990 23.6059
0918 1400992431 23.2008
0919 1400994873 23.1512
0920 1400997314 22.9514
0921 1400999755 22.3797
0922 1401002197 22.3029
0923 1401004638 22.1912
0924 1401007080 21.7057
0925 1401009521 22.1500
0926 1401011962 22.0719
0927 1401014404 21.3200
0928 1401016845 21.0692
0929 1401019287 21.2704
0930 1401021728 21.4282
0931 1401024169 20.7040
0932 1401026611 20.5678
0933 1401029052 20.2675
0934 1401031494 19.7385
0935 1401033935 19.3579
0936 1401036376 19.1846
0937 1401038818 18.9739
0938 1401041259 19.0002
0939 1401043701 18.9710
0940 1401046142 18.6077
0941 1401048583 18.2657
0942 1401051025 18.0448
0943 1401053466 17.8741
0944 1401055908 17.7753
0945 1401058349 17.4546
0946 1401060791 17.1137
0947 1401063232 17.2679
0948 1401065673 17.1483
0949 1401068115 16.6569
0950 1401070556 16.6529
0951 1401072998 16.6731
0952 1401075439 16.0358
0953 1401077880 15.6529
0954 1401080322 16.1601
0955 1401082763 15.5113
0956 1401085205 15.7277
0957 1401087646 16.9184
0958 1401090087 15.0026
0959 1401092529 14.5685
0960 1401094970 14.5254
0961 1401097412 14.2582
0962 1401099853 14.2103
0963 1401102294 14.0491
0964 1401104736 13.7362
0965 1401107177 13.5151
0966 1401109619 13.6186
0967 1401112060 13.2039
0968 1401114501 12.9313
0969 1401116943 12.8268
0970 1401119384 12.7857
0971 1401121826 12.5817
0972 1401124267 12.4856
0973 1401126708 12.5602
0974 1401129150 12.2933
0975 1401131591 12.2666
0976 1401134033 12.1563
0977 1401136474 11.6045
0978 1401138916 11.2805
0979 1401141357 11.3410
0980 1401143798 11.1774
0981 1401146240 10.9978
0982 1401148681 10.9376
0983 1401151123 10.7540
0984 1401153564 10.5711
0985 1401156005 10.4825
0986 1401158447 10.2795
0987 1401160888 10.1553
0988 1401163330 10.0365
0989 1401165771 10.0374
0990 1401168212 9.7694
0991 1401170654 9.6859
0992 1401173095 9.6022
0993 1401175537 9.3743
0994 1401177978 9.4173
0995 1401180419 9.3978
0996 1401182861 9.3227
0997 1401185302 9.1847
0998 1401187744 9.5976
0999 1401190185 9.0827
1000 1401192626 8.8697
1001 1401195068 8.7308
1002 1401197509 9.7405
1003 1401199951 9.8251
1004 1401202392 8.8576
1005 1401204833 8.4675
1006 1401207275 8.2782
1007 1401209716 8.2369
1008 1401212158 8.2631
1009 1401214599 8.4956
1010 1401217041 8.1853
1011 1401219482 7.9391
1012 1401221923 7.9652
1013 1401224365 7.9497
1014 1401226806 7.8766
1015 1401229248 7.7748
1016 1401231689 7.8269
1017 1401234130 7.7215
1018 1401236572 7.7378
1019 1401239013 7.7678
1020 1401241455 7.6811
1021 1401243896 7.6387
1022 1401246337 7.6822
1023 1401248779 7.6788
