# File: 20-05-31T223607.hot
# NOTEA     = None Attached.  RTLSDR Dongle Test
# NOTEB     = Spectral Integration
# OBSERVER  = Science Aficionado
# DEVICE    = rtlsdr=0
# DATADIR   = ../data/
# SITE      = None Attached.  RTLSDR Dongle Test
# CITY      = Green Bank
# REGION    = West Virginia
# COUNTRY   = US
# TELTYPE   = Bubble Wrap  Horn
# FRAME     = TOPO
# GAIN1     = 49.0
# GAIN2     = 11.0
# GAIN3     = 11.0
# GAIN4     = 0.0
# Count     = 10000
# CenterFreq= 1400000000.0
# Bandwidth = 2500000.0
# Duration  = 41.953414
# DeltaX    = 5859.375
# TSYS      = 200.0
# TRX       = 100.0
# TRMS      = 2.0
# TINT      = 1.0
# KPERC     = 100.0
# GAINFACT  = 1.0
# BUNIT     = Counts
# NCHAN     = 1024
# NSPEC     = 1
# NTIME     = 0
# NSAMPLES  = 0
# EPEAK     = 4.10875183718
# ERMS      = 0.995973393526
# EMJD      = 58568.808999981004 
# REFCHAN   = 512.0
# REFSAMPL  = 256.0
# NAVE      = 100
# NMEDIAN   = 1024
# Fft_rate  = 5000
# UTC       = 2020-05-31 22:36:07.733670
# SECONDS   =       0.0000000000 
# LST       = 09:56:16.980
# AZ        = 180.0
# EL        = -90.0
# TELLON    = -79:50:22.920
# TELLAT    = +38:25:59.160
# RA        = 21:53:49.830
# DEC       = -38:37:43.000
# GALLON    = 04:05:02.40
# GALLAT    = -51:23:16.90
# ALT_SUN   = +21:19:32.8
# AZ_SUN    = +281:52:33.6
# ETAA      = 0.8
# ETAB      = 0.99
# POLANGLE  = 0.0
# TELSIZEAM = 1.0
# TELSIZEBM = 1.0
# AST_VERS  = 05.01
0000 1398751220 7.0538
0001 1398753662 7.0432
0002 1398756103 7.0343
0003 1398758544 6.9749
0004 1398760986 7.0663
0005 1398763427 7.1980
0006 1398765869 7.0269
0007 1398768310 6.9322
0008 1398770751 6.9304
0009 1398773193 7.0968
0010 1398775634 7.3419
0011 1398778076 7.1897
0012 1398780517 7.0579
0013 1398782958 7.1271
0014 1398785400 7.1541
0015 1398787841 7.5788
0016 1398790283 7.3555
0017 1398792724 7.3099
0018 1398795166 7.3644
0019 1398797607 7.9592
0020 1398800048 8.0599
0021 1398802490 7.6141
0022 1398804931 7.5175
0023 1398807373 7.4968
0024 1398809814 7.5862
0025 1398812255 7.7993
0026 1398814697 7.8921
0027 1398817138 7.8291
0028 1398819580 7.9916
0029 1398822021 8.0744
0030 1398824462 8.1402
0031 1398826904 8.2181
0032 1398829345 8.1806
0033 1398831787 8.2975
0034 1398834228 8.7326
0035 1398836669 9.0401
0036 1398839111 8.6201
0037 1398841552 8.7253
0038 1398843994 8.8612
0039 1398846435 9.0020
0040 1398848876 9.0370
0041 1398851318 9.2237
0042 1398853759 9.3266
0043 1398856201 9.4698
0044 1398858642 9.3715
0045 1398861083 9.4917
0046 1398863525 9.6986
0047 1398865966 10.0174
0048 1398868408 10.1923
0049 1398870849 9.9996
0050 1398873291 10.1065
0051 1398875732 10.3029
0052 1398878173 10.5208
0053 1398880615 10.7507
0054 1398883056 10.6708
0055 1398885498 11.1470
0056 1398887939 11.9474
0057 1398890380 11.3341
0058 1398892822 11.3823
0059 1398895263 12.4648
0060 1398897705 12.7631
0061 1398900146 12.0059
0062 1398902587 11.8960
0063 1398905029 12.1295
0064 1398907470 12.5745
0065 1398909912 12.4888
0066 1398912353 12.8307
0067 1398914794 12.8506
0068 1398917236 13.0005
0069 1398919677 13.4174
0070 1398922119 13.2472
0071 1398924560 13.6172
0072 1398927001 14.1704
0073 1398929443 13.8794
0074 1398931884 13.9808
0075 1398934326 14.1675
0076 1398936767 14.2250
0077 1398939208 14.5629
0078 1398941650 14.5763
0079 1398944091 14.7033
0080 1398946533 14.9337
0081 1398948974 15.4429
0082 1398951416 15.3835
0083 1398953857 15.4740
0084 1398956298 16.4685
0085 1398958740 16.4590
0086 1398961181 15.8883
0087 1398963623 16.5856
0088 1398966064 16.6051
0089 1398968505 16.7911
0090 1398970947 17.0318
0091 1398973388 17.1318
0092 1398975830 17.0699
0093 1398978271 17.4965
0094 1398980712 17.4435
0095 1398983154 17.5926
0096 1398985595 18.3708
0097 1398988037 19.4076
0098 1398990478 18.2606
0099 1398992919 18.4630
0100 1398995361 18.7108
0101 1398997802 18.7684
0102 1399000244 18.9599
0103 1399002685 19.5105
0104 1399005126 19.5717
0105 1399007568 20.4849
0106 1399010009 21.8624
0107 1399012451 20.8862
0108 1399014892 20.4812
0109 1399017333 21.5931
0110 1399019775 20.8053
0111 1399022216 20.4045
0112 1399024658 21.2915
0113 1399027099 21.1287
0114 1399029541 21.3228
0115 1399031982 21.2810
0116 1399034423 21.6706
0117 1399036865 21.4312
0118 1399039306 21.7859
0119 1399041748 21.8894
0120 1399044189 21.9868
0121 1399046630 22.3682
0122 1399049072 22.6172
0123 1399051513 22.7246
0124 1399053955 23.0423
0125 1399056396 23.4808
0126 1399058837 22.9401
0127 1399061279 23.4377
0128 1399063720 24.2617
0129 1399066162 23.5477
0130 1399068603 24.0664
0131 1399071044 24.5369
0132 1399073486 23.9539
0133 1399075927 24.5496
0134 1399078369 25.5523
0135 1399080810 24.4832
0136 1399083251 24.7321
0137 1399085693 25.5699
0138 1399088134 26.2484
0139 1399090576 25.1088
0140 1399093017 25.7996
0141 1399095458 26.0431
0142 1399097900 25.5625
0143 1399100341 25.8598
0144 1399102783 25.8856
0145 1399105224 25.8108
0146 1399107666 26.0919
0147 1399110107 26.4529
0148 1399112548 26.4268
0149 1399114990 26.6725
0150 1399117431 27.0381
0151 1399119873 27.1326
0152 1399122314 27.3587
0153 1399124755 27.4703
0154 1399127197 27.0967
0155 1399129638 27.6932
0156 1399132080 28.0934
0157 1399134521 27.8424
0158 1399136962 28.4974
0159 1399139404 29.3759
0160 1399141845 28.0556
0161 1399144287 27.9026
0162 1399146728 28.6961
0163 1399149169 28.6142
0164 1399151611 28.7534
0165 1399154052 28.7828
0166 1399156494 28.9127
0167 1399158935 28.7339
0168 1399161376 29.0454
0169 1399163818 28.8842
0170 1399166259 28.9132
0171 1399168701 29.2639
0172 1399171142 29.3705
0173 1399173583 29.4297
0174 1399176025 29.3319
0175 1399178466 29.7257
0176 1399180908 29.5733
0177 1399183349 30.1190
0178 1399185791 30.3377
0179 1399188232 30.9655
0180 1399190673 31.1890
0181 1399193115 30.1496
0182 1399195556 29.7812
0183 1399197998 30.8009
0184 1399200439 31.5058
0185 1399202880 30.5238
0186 1399205322 30.3865
0187 1399207763 30.7986
0188 1399210205 31.1175
0189 1399212646 30.9608
0190 1399215087 31.2511
0191 1399217529 30.7284
0192 1399219970 30.8947
0193 1399222412 31.1204
0194 1399224853 30.8717
0195 1399227294 30.7943
0196 1399229736 31.2620
0197 1399232177 31.5254
0198 1399234619 31.0948
0199 1399237060 31.6565
0200 1399239501 31.4505
0201 1399241943 31.5373
0202 1399244384 33.7377
0203 1399246826 32.6399
0204 1399249267 31.0647
0205 1399251708 31.4974
0206 1399254150 31.8510
0207 1399256591 31.6356
0208 1399259033 32.3087
0209 1399261474 31.9590
0210 1399263916 31.5529
0211 1399266357 31.7338
0212 1399268798 32.0431
0213 1399271240 31.8704
0214 1399273681 32.3536
0215 1399276123 33.2219
0216 1399278564 31.6537
0217 1399281005 31.6308
0218 1399283447 31.9478
0219 1399285888 33.3608
0220 1399288330 34.5151
0221 1399290771 32.3006
0222 1399293212 31.7755
0223 1399295654 32.3724
0224 1399298095 32.3229
0225 1399300537 31.8068
0226 1399302978 31.9405
0227 1399305419 33.2627
0228 1399307861 33.1692
0229 1399310302 32.4010
0230 1399312744 33.4881
0231 1399315185 32.7475
0232 1399317626 31.7815
0233 1399320068 32.6868
0234 1399322509 32.6191
0235 1399324951 31.8167
0236 1399327392 32.2358
0237 1399329833 32.8315
0238 1399332275 32.3098
0239 1399334716 32.2222
0240 1399337158 33.0562
0241 1399339599 32.6001
0242 1399342041 32.5384
0243 1399344482 32.7290
0244 1399346923 31.7629
0245 1399349365 31.9396
0246 1399351806 32.4842
0247 1399354248 32.2878
0248 1399356689 32.3057
0249 1399359130 32.5505
0250 1399361572 32.1572
0251 1399364013 32.8818
0252 1399366455 33.0878
0253 1399368896 32.9876
0254 1399371337 32.4700
0255 1399373779 33.6189
0256 1399376220 32.5173
0257 1399378662 32.7904
0258 1399381103 33.6563
0259 1399383544 32.9245
0260 1399385986 32.4643
0261 1399388427 32.8075
0262 1399390869 33.1760
0263 1399393310 32.4604
0264 1399395751 32.2629
0265 1399398193 32.1907
0266 1399400634 32.6701
0267 1399403076 32.3500
0268 1399405517 32.3729
0269 1399407958 31.9551
0270 1399410400 32.2736
0271 1399412841 32.2969
0272 1399415283 31.6654
0273 1399417724 31.8601
0274 1399420166 31.9184
0275 1399422607 32.0693
0276 1399425048 31.8240
0277 1399427490 32.2753
0278 1399429931 31.8698
0279 1399432373 32.1763
0280 1399434814 33.1803
0281 1399437255 31.7894
0282 1399439697 32.1744
0283 1399442138 34.3422
0284 1399444580 32.3919
0285 1399447021 31.1501
0286 1399449462 32.1639
0287 1399451904 32.3272
0288 1399454345 31.6190
0289 1399456787 31.9076
0290 1399459228 31.7602
0291 1399461669 31.6063
0292 1399464111 31.9806
0293 1399466552 31.8155
0294 1399468994 31.0678
0295 1399471435 31.8508
0296 1399473876 31.9625
0297 1399476318 31.5648
0298 1399478759 31.7091
0299 1399481201 31.8236
0300 1399483642 31.5649
0301 1399486083 32.7577
0302 1399488525 33.2992
0303 1399490966 31.4939
0304 1399493408 32.2502
0305 1399495849 32.6706
0306 1399498291 31.8699
0307 1399500732 32.8731
0308 1399503173 33.4893
0309 1399505615 32.0480
0310 1399508056 31.5461
0311 1399510498 32.2005
0312 1399512939 31.7613
0313 1399515380 31.3760
0314 1399517822 32.1375
0315 1399520263 31.6914
0316 1399522705 31.8592
0317 1399525146 32.4133
0318 1399527587 31.9751
0319 1399530029 31.8272
0320 1399532470 32.2411
0321 1399534912 32.1231
0322 1399537353 31.6849
0323 1399539794 32.1170
0324 1399542236 31.6610
0325 1399544677 31.3756
0326 1399547119 31.9731
0327 1399549560 32.3101
0328 1399552001 31.7359
0329 1399554443 33.3071
0330 1399556884 34.0478
0331 1399559326 32.5836
0332 1399561767 33.8964
0333 1399564208 36.2838
0334 1399566650 32.0923
0335 1399569091 31.9360
0336 1399571533 32.9295
0337 1399573974 31.8671
0338 1399576416 32.1249
0339 1399578857 32.3881
0340 1399581298 32.0492
0341 1399583740 32.2661
0342 1399586181 33.9005
0343 1399588623 34.0712
0344 1399591064 32.4880
0345 1399593505 33.6745
0346 1399595947 32.7023
0347 1399598388 31.8294
0348 1399600830 32.2125
0349 1399603271 32.3708
0350 1399605712 32.2714
0351 1399608154 32.3527
0352 1399610595 32.2941
0353 1399613037 32.1973
0354 1399615478 33.3263
0355 1399617919 33.1280
0356 1399620361 33.6843
0357 1399622802 34.9192
0358 1399625244 36.4711
0359 1399627685 33.3615
0360 1399630126 33.5639
0361 1399632568 33.8378
0362 1399635009 33.5209
0363 1399637451 33.8876
0364 1399639892 33.3876
0365 1399642333 32.9961
0366 1399644775 33.0523
0367 1399647216 33.3507
0368 1399649658 33.2087
0369 1399652099 33.4925
0370 1399654541 34.1090
0371 1399656982 33.1465
0372 1399659423 33.3365
0373 1399661865 33.4359
0374 1399664306 33.3821
0375 1399666748 33.5696
0376 1399669189 34.2405
0377 1399671630 33.2876
0378 1399674072 33.7569
0379 1399676513 34.9449
0380 1399678955 33.8823
0381 1399681396 35.5265
0382 1399683837 37.2038
0383 1399686279 37.4414
0384 1399688720 33.7401
0385 1399691162 33.7049
0386 1399693603 34.3340
0387 1399696044 33.7924
0388 1399698486 33.8181
0389 1399700927 34.5989
0390 1399703369 34.4217
0391 1399705810 34.0841
0392 1399708251 34.2789
0393 1399710693 34.1511
0394 1399713134 34.7130
0395 1399715576 35.4081
0396 1399718017 34.6148
0397 1399720458 35.7593
0398 1399722900 35.2873
0399 1399725341 34.5742
0400 1399727783 34.7944
0401 1399730224 34.8666
0402 1399732666 34.5143
0403 1399735107 34.7965
0404 1399737548 36.0044
0405 1399739990 35.1781
0406 1399742431 35.2731
0407 1399744873 37.3072
0408 1399747314 37.3466
0409 1399749755 36.2637
0410 1399752197 36.3265
0411 1399754638 35.4724
0412 1399757080 35.9266
0413 1399759521 35.7488
0414 1399761962 35.5408
0415 1399764404 35.9071
0416 1399766845 35.7566
0417 1399769287 36.1960
0418 1399771728 35.9769
0419 1399774169 36.0265
0420 1399776611 37.2381
0421 1399779052 36.8169
0422 1399781494 36.2475
0423 1399783935 35.9808
0424 1399786376 37.6096
0425 1399788818 37.5146
0426 1399791259 36.7879
0427 1399793701 36.8044
0428 1399796142 36.8407
0429 1399798583 37.7304
0430 1399801025 37.4108
0431 1399803466 37.6257
0432 1399805908 37.7924
0433 1399808349 38.7173
0434 1399810791 37.4488
0435 1399813232 38.1253
0436 1399815673 37.3517
0437 1399818115 37.1332
0438 1399820556 37.2990
0439 1399822998 37.5878
0440 1399825439 37.6862
0441 1399827880 37.6613
0442 1399830322 38.0739
0443 1399832763 37.6656
0444 1399835205 37.1209
0445 1399837646 37.9307
0446 1399840087 37.8500
0447 1399842529 38.3889
0448 1399844970 38.4056
0449 1399847412 37.6480
0450 1399849853 37.8176
0451 1399852294 38.3746
0452 1399854736 38.1780
0453 1399857177 39.4866
0454 1399859619 39.5204
0455 1399862060 38.8238
0456 1399864501 38.8319
0457 1399866943 39.9225
0458 1399869384 38.6976
0459 1399871826 38.9975
0460 1399874267 39.3117
0461 1399876708 38.0569
0462 1399879150 38.5557
0463 1399881591 39.4697
0464 1399884033 39.4666
0465 1399886474 40.2356
0466 1399888916 40.0468
0467 1399891357 39.1755
0468 1399893798 38.3558
0469 1399896240 39.5514
0470 1399898681 39.4594
0471 1399901123 39.0430
0472 1399903564 39.9727
0473 1399906005 39.2864
0474 1399908447 39.0275
0475 1399910888 39.3190
0476 1399913330 39.6994
0477 1399915771 39.5511
0478 1399918212 39.7238
0479 1399920654 39.4807
0480 1399923095 40.2832
0481 1399925537 39.7786
0482 1399927978 40.1246
0483 1399930419 40.0061
0484 1399932861 41.5412
0485 1399935302 43.8543
0486 1399937744 40.6378
0487 1399940185 40.3279
0488 1399942626 40.4467
0489 1399945068 39.7971
0490 1399947509 39.9840
0491 1399949951 40.3572
0492 1399952392 40.6365
0493 1399954833 40.0582
0494 1399957275 40.6632
0495 1399959716 40.9471
0496 1399962158 40.6678
0497 1399964599 41.5786
0498 1399967041 40.5260
0499 1399969482 40.1455
0500 1399971923 41.5818
0501 1399974365 49.5385
0502 1399976806 48.6674
0503 1399979248 48.1831
0504 1399981689 46.0102
0505 1399984130 43.7683
0506 1399986572 62.8819
0507 1399989013 77.3773
0508 1399991455 46.9314
0509 1399993896 44.4189
0510 1399996337 76.3437
0511 1399998779 220.2141
0512 1400001220 75.6217
0513 1400003662 49.0386
0514 1400006103 44.0801
0515 1400008544 42.4567
0516 1400010986 43.9038
0517 1400013427 57.0840
0518 1400015869 61.6987
0519 1400018310 41.4918
0520 1400020751 41.7096
0521 1400023193 43.5708
0522 1400025634 41.9157
0523 1400028076 41.0898
0524 1400030517 40.7855
0525 1400032958 40.7441
0526 1400035400 40.5017
0527 1400037841 40.5937
0528 1400040283 41.5764
0529 1400042724 41.6661
0530 1400045166 40.4182
0531 1400047607 41.1110
0532 1400050048 41.4492
0533 1400052490 40.4882
0534 1400054931 41.1518
0535 1400057373 40.9212
0536 1400059814 40.5982
0537 1400062255 39.5462
0538 1400064697 39.8980
0539 1400067138 39.6583
0540 1400069580 39.4952
0541 1400072021 40.6422
0542 1400074462 39.6281
0543 1400076904 39.8544
0544 1400079345 39.7436
0545 1400081787 39.5899
0546 1400084228 40.0149
0547 1400086669 43.4233
0548 1400089111 41.4662
0549 1400091552 39.1740
0550 1400093994 39.8554
0551 1400096435 40.1099
0552 1400098876 39.0523
0553 1400101318 39.2204
0554 1400103759 39.6500
0555 1400106201 38.8919
0556 1400108642 40.2928
0557 1400111083 41.0121
0558 1400113525 38.8043
0559 1400115966 39.4037
0560 1400118408 39.9279
0561 1400120849 38.8420
0562 1400123291 39.2049
0563 1400125732 39.4874
0564 1400128173 38.8353
0565 1400130615 38.4153
0566 1400133056 38.6331
0567 1400135498 38.2883
0568 1400137939 38.2880
0569 1400140380 38.5235
0570 1400142822 38.4532
0571 1400145263 38.1716
0572 1400147705 38.5790
0573 1400150146 38.4291
0574 1400152587 38.0747
0575 1400155029 39.4993
0576 1400157470 38.5972
0577 1400159912 38.4195
0578 1400162353 40.1821
0579 1400164794 39.5563
0580 1400167236 37.8697
0581 1400169677 39.5903
0582 1400172119 39.1095
0583 1400174560 37.8862
0584 1400177001 37.4324
0585 1400179443 37.6041
0586 1400181884 37.8154
0587 1400184326 37.6083
0588 1400186767 38.2140
0589 1400189208 37.7566
0590 1400191650 37.5846
0591 1400194091 37.4020
0592 1400196533 37.2053
0593 1400198974 36.9582
0594 1400201416 37.6354
0595 1400203857 37.1398
0596 1400206298 37.1142
0597 1400208740 37.6743
0598 1400211181 37.0484
0599 1400213623 37.0899
0600 1400216064 36.9916
0601 1400218505 36.8375
0602 1400220947 36.6757
0603 1400223388 36.9707
0604 1400225830 36.9057
0605 1400228271 35.9481
0606 1400230712 36.7339
0607 1400233154 37.0246
0608 1400235595 36.6501
0609 1400238037 36.1612
0610 1400240478 36.3860
0611 1400242919 35.7074
0612 1400245361 35.9993
0613 1400247802 35.7842
0614 1400250244 35.7987
0615 1400252685 36.3498
0616 1400255126 36.8373
0617 1400257568 36.0200
0618 1400260009 35.7492
0619 1400262451 35.4512
0620 1400264892 35.7597
0621 1400267333 35.6261
0622 1400269775 35.4432
0623 1400272216 35.2181
0624 1400274658 35.2129
0625 1400277099 36.0726
0626 1400279541 35.5725
0627 1400281982 35.9240
0628 1400284423 38.1331
0629 1400286865 36.7687
0630 1400289306 35.7976
0631 1400291748 39.0845
0632 1400294189 36.5032
0633 1400296630 35.0261
0634 1400299072 34.9903
0635 1400301513 35.3915
0636 1400303955 35.1413
0637 1400306396 34.8016
0638 1400308837 34.8507
0639 1400311279 34.4305
0640 1400313720 34.4308
0641 1400316162 34.6665
0642 1400318603 34.4895
0643 1400321044 35.2808
0644 1400323486 35.6252
0645 1400325927 34.3437
0646 1400328369 34.9714
0647 1400330810 34.9794
0648 1400333251 34.0564
0649 1400335693 34.2714
0650 1400338134 34.6181
0651 1400340576 34.1915
0652 1400343017 34.5830
0653 1400345458 35.9880
0654 1400347900 33.9324
0655 1400350341 33.5767
0656 1400352783 35.2503
0657 1400355224 34.5961
0658 1400357666 34.2059
0659 1400360107 34.2569
0660 1400362548 34.0969
0661 1400364990 33.4945
0662 1400367431 33.4772
0663 1400369873 33.2851
0664 1400372314 33.5721
0665 1400374755 34.0656
0666 1400377197 33.9145
0667 1400379638 33.8161
0668 1400382080 33.0403
0669 1400384521 33.4849
0670 1400386962 35.8928
0671 1400389404 34.7604
0672 1400391845 33.8581
0673 1400394287 33.1517
0674 1400396728 33.4210
0675 1400399169 33.9545
0676 1400401611 33.4750
0677 1400404052 33.1468
0678 1400406494 33.7384
0679 1400408935 33.0621
0680 1400411376 33.6728
0681 1400413818 36.8394
0682 1400416259 34.0162
0683 1400418701 33.2250
0684 1400421142 33.1829
0685 1400423583 32.9791
0686 1400426025 32.5223
0687 1400428466 33.3121
0688 1400430908 33.1190
0689 1400433349 32.8922
0690 1400435791 32.7255
0691 1400438232 32.5044
0692 1400440673 32.6897
0693 1400443115 33.0350
0694 1400445556 33.0388
0695 1400447998 32.6724
0696 1400450439 32.8163
0697 1400452880 33.1533
0698 1400455322 32.7502
0699 1400457763 33.5135
0700 1400460205 33.0314
0701 1400462646 32.9208
0702 1400465087 34.8074
0703 1400467529 34.7188
0704 1400469970 33.1698
0705 1400472412 33.7996
0706 1400474853 35.6256
0707 1400477294 33.0127
0708 1400479736 32.3508
0709 1400482177 33.0060
0710 1400484619 32.9877
0711 1400487060 33.0477
0712 1400489501 33.4498
0713 1400491943 32.5913
0714 1400494384 36.7071
0715 1400496826 43.6732
0716 1400499267 35.9871
0717 1400501708 32.7950
0718 1400504150 33.5756
0719 1400506591 33.2374
0720 1400509033 32.9569
0721 1400511474 32.9717
0722 1400513916 32.8446
0723 1400516357 32.3889
0724 1400518798 33.4475
0725 1400521240 33.5224
0726 1400523681 33.3867
0727 1400526123 35.2400
0728 1400528564 33.9504
0729 1400531005 33.0446
0730 1400533447 34.2897
0731 1400535888 35.2199
0732 1400538330 33.6171
0733 1400540771 33.3916
0734 1400543212 34.5691
0735 1400545654 33.2209
0736 1400548095 32.5651
0737 1400550537 33.6658
0738 1400552978 33.0902
0739 1400555419 33.0499
0740 1400557861 33.9955
0741 1400560302 33.6755
0742 1400562744 33.5330
0743 1400565185 33.0523
0744 1400567626 33.3566
0745 1400570068 33.1543
0746 1400572509 33.7836
0747 1400574951 33.4972
0748 1400577392 33.1136
0749 1400579833 33.7144
0750 1400582275 33.9906
0751 1400584716 33.7287
0752 1400587158 37.0296
0753 1400589599 34.7759
0754 1400592041 33.5957
0755 1400594482 35.5181
0756 1400596923 37.1843
0757 1400599365 33.6498
0758 1400601806 33.3370
0759 1400604248 33.7326
0760 1400606689 33.3565
0761 1400609130 34.1643
0762 1400611572 34.3467
0763 1400614013 33.6170
0764 1400616455 33.7572
0765 1400618896 34.2887
0766 1400621337 33.3246
0767 1400623779 33.2723
0768 1400626220 34.3415
0769 1400628662 33.4619
0770 1400631103 33.6611
0771 1400633544 33.9286
0772 1400635986 33.6219
0773 1400638427 33.6623
0774 1400640869 35.5673
0775 1400643310 34.0723
0776 1400645751 34.7207
0777 1400648193 35.6153
0778 1400650634 33.9946
0779 1400653076 34.0258
0780 1400655517 34.3479
0781 1400657958 34.4365
0782 1400660400 33.6181
0783 1400662841 34.0985
0784 1400665283 34.3405
0785 1400667724 33.7810
0786 1400670166 33.7683
0787 1400672607 37.2891
0788 1400675048 43.6375
0789 1400677490 35.4760
0790 1400679931 34.4463
0791 1400682373 33.6398
0792 1400684814 34.2065
0793 1400687255 35.3406
0794 1400689697 33.8388
0795 1400692138 34.8224
0796 1400694580 36.4570
0797 1400697021 34.4012
0798 1400699462 34.0143
0799 1400701904 34.1044
0800 1400704345 33.4848
0801 1400706787 34.0578
0802 1400709228 34.5129
0803 1400711669 33.8008
0804 1400714111 34.0953
0805 1400716552 36.8730
0806 1400718994 35.1100
0807 1400721435 33.8285
0808 1400723876 34.3520
0809 1400726318 33.8075
0810 1400728759 33.7167
0811 1400731201 33.6716
0812 1400733642 33.4312
0813 1400736083 33.1550
0814 1400738525 33.7200
0815 1400740966 33.7771
0816 1400743408 33.3908
0817 1400745849 33.4969
0818 1400748291 33.9148
0819 1400750732 32.9393
0820 1400753173 33.8390
0821 1400755615 33.4742
0822 1400758056 32.8980
0823 1400760498 33.2238
0824 1400762939 33.3792
0825 1400765380 32.9877
0826 1400767822 34.6747
0827 1400770263 34.3158
0828 1400772705 33.1783
0829 1400775146 33.0903
0830 1400777587 35.2129
0831 1400780029 33.5786
0832 1400782470 32.1797
0833 1400784912 32.9176
0834 1400787353 33.2519
0835 1400789794 32.6803
0836 1400792236 33.1173
0837 1400794677 32.6336
0838 1400797119 32.0725
0839 1400799560 32.7010
0840 1400802001 32.7143
0841 1400804443 31.7617
0842 1400806884 32.3317
0843 1400809326 32.1809
0844 1400811767 32.0402
0845 1400814208 32.4702
0846 1400816650 31.8805
0847 1400819091 31.8293
0848 1400821533 34.1157
0849 1400823974 35.1438
0850 1400826416 31.7526
0851 1400828857 32.3969
0852 1400831298 31.8904
0853 1400833740 30.9963
0854 1400836181 31.0798
0855 1400838623 32.5396
0856 1400841064 30.4739
0857 1400843505 30.8233
0858 1400845947 30.9952
0859 1400848388 30.5746
0860 1400850830 30.3357
0861 1400853271 30.6401
0862 1400855712 30.4614
0863 1400858154 30.2521
0864 1400860595 30.2273
0865 1400863037 29.9354
0866 1400865478 29.7924
0867 1400867919 30.0118
0868 1400870361 29.6097
0869 1400872802 29.3919
0870 1400875244 29.5505
0871 1400877685 29.3967
0872 1400880126 28.8471
0873 1400882568 29.7680
0874 1400885009 29.4546
0875 1400887451 30.9869
0876 1400889892 29.5962
0877 1400892333 29.1455
0878 1400894775 28.2003
0879 1400897216 28.7501
0880 1400899658 30.3688
0881 1400902099 27.6607
0882 1400904541 27.5811
0883 1400906982 27.5035
0884 1400909423 27.1952
0885 1400911865 27.3666
0886 1400914306 27.1235
0887 1400916748 26.5315
0888 1400919189 26.3012
0889 1400921630 26.8972
0890 1400924072 26.2726
0891 1400926513 26.1200
0892 1400928955 26.3475
0893 1400931396 25.7506
0894 1400933837 25.5224
0895 1400936279 25.4076
0896 1400938720 25.0803
0897 1400941162 25.0756
0898 1400943603 25.4525
0899 1400946044 25.1713
0900 1400948486 24.8823
0901 1400950927 25.3288
0902 1400953369 24.7686
0903 1400955810 24.0512
0904 1400958251 24.8964
0905 1400960693 25.4415
0906 1400963134 23.6664
0907 1400965576 23.6014
0908 1400968017 23.4792
0909 1400970458 22.8543
0910 1400972900 22.6189
0911 1400975341 23.0496
0912 1400977783 22.4259
0913 1400980224 22.3642
0914 1400982666 21.9432
0915 1400985107 21.7371
0916 1400987548 21.5931
0917 1400989990 21.3341
0918 1400992431 20.9934
0919 1400994873 20.9150
0920 1400997314 20.8906
0921 1400999755 20.5930
0922 1401002197 20.4869
0923 1401004638 20.3669
0924 1401007080 20.0309
0925 1401009521 20.2592
0926 1401011962 20.5306
0927 1401014404 19.6602
0928 1401016845 19.2877
0929 1401019287 19.9284
0930 1401021728 19.9697
0931 1401024169 18.8351
0932 1401026611 18.7243
0933 1401029052 18.3351
0934 1401031494 17.9956
0935 1401033935 17.6296
0936 1401036376 17.3829
0937 1401038818 17.1161
0938 1401041259 17.4399
0939 1401043701 17.3598
0940 1401046142 16.6773
0941 1401048583 16.6820
0942 1401051025 16.4625
0943 1401053466 16.3043
0944 1401055908 16.2838
0945 1401058349 16.0708
0946 1401060791 15.7266
0947 1401063232 15.7255
0948 1401065673 15.7433
0949 1401068115 15.3779
0950 1401070556 15.1709
0951 1401072998 15.0457
0952 1401075439 14.5855
0953 1401077880 14.3422
0954 1401080322 15.0363
0955 1401082763 14.5437
0956 1401085205 14.2256
0957 1401087646 14.7806
0958 1401090087 13.8082
0959 1401092529 13.3811
0960 1401094970 13.3365
0961 1401097412 12.9892
0962 1401099853 12.8852
0963 1401102294 12.7325
0964 1401104736 12.5600
0965 1401107177 12.4078
0966 1401109619 12.3973
0967 1401112060 12.1733
0968 1401114501 11.8668
0969 1401116943 11.6741
0970 1401119384 11.6051
0971 1401121826 11.5270
0972 1401124267 11.4777
0973 1401126708 11.4824
0974 1401129150 11.4084
0975 1401131591 11.1990
0976 1401134033 11.4576
0977 1401136474 10.5847
0978 1401138916 10.4471
0979 1401141357 10.7446
0980 1401143798 10.2152
0981 1401146240 10.1162
0982 1401148681 10.2030
0983 1401151123 10.0064
0984 1401153564 9.6561
0985 1401156005 9.6643
0986 1401158447 9.4641
0987 1401160888 9.3695
0988 1401163330 9.3484
0989 1401165771 9.1415
0990 1401168212 8.9005
0991 1401170654 8.8992
0992 1401173095 8.9623
0993 1401175537 8.7522
0994 1401177978 8.7007
0995 1401180419 8.5762
0996 1401182861 8.3993
0997 1401185302 8.4263
0998 1401187744 8.6812
0999 1401190185 8.3375
1000 1401192626 8.1029
1001 1401195068 8.0449
1002 1401197509 8.4196
1003 1401199951 8.5585
1004 1401202392 8.3214
1005 1401204833 7.8301
1006 1401207275 7.6330
1007 1401209716 7.6477
1008 1401212158 7.6498
1009 1401214599 7.8767
1010 1401217041 7.5626
1011 1401219482 7.3418
1012 1401221923 7.3080
1013 1401224365 7.3744
1014 1401226806 7.1872
1015 1401229248 7.1090
1016 1401231689 7.1251
1017 1401234130 7.1080
1018 1401236572 7.1188
1019 1401239013 7.0942
1020 1401241455 7.0896
1021 1401243896 7.1100
1022 1401246337 7.0631
1023 1401248779 7.1934
