# File: 20-06-07T200437.ast
# NOTEA     = None Attached.  RTLSDR Dongle Test
# NOTEB     = Spectral Integration
# OBSERVER  = Science Aficionado
# DEVICE    = rtl=0,bias=1
# DATADIR   = ../data/
# SITE      = None Attached.  RTLSDR Dongle Test
# CITY      = Seattle
# REGION    = Washington
# COUNTRY   = US
# TELTYPE   = UW CSE 490W Dish
# FRAME     = TOPO
# GAIN1     = 49.0
# GAIN2     = 11.0
# GAIN3     = 11.0
# GAIN4     = 0.0
# Count     = 2500
# CenterFreq= 1421500000.0
# Bandwidth = 2500000.0
# Duration  = 41.94122
# DeltaX    = 5859.375
# TSYS      = 200.0
# TRX       = 100.0
# TRMS      = 2.0
# TINT      = 1.0
# KPERC     = 100.0
# GAINFACT  = 1.0
# BUNIT     = Counts
# NCHAN     = 2048
# NSPEC     = 1
# NTIME     = 0
# NSAMPLES  = 0
# EPEAK     = 4.10875183718
# ERMS      = 0.995973393526
# EMJD      = 58568.808999981004 
# REFCHAN   = 1024.0
# REFSAMPL  = 256.0
# NAVE      = 50
# NMEDIAN   = 1024
# Fft_rate  = 5000
# UTC       = 2020-06-07 20:04:37.406911
# SECONDS   =       0.0000000000 
# LST       = 09:20:34.550
# AZ        = 180.0
# EL        = 90.0
# TELLON    = -57:41:09.900
# TELLAT    = +47:39:13.800
# RA        = 09:17:52.460
# DEC       = +47:49:22.400
# GALLON    = 171:25:27.20
# GALLAT    = +43:58:09.70
# ALT_SUN   = +34:12:38.1
# AZ_SUN    = +267:13:25.7
# ETAA      = 0.8
# ETAB      = 0.99
# POLANGLE  = 0.0
# TELSIZEAM = 1.0
# TELSIZEBM = 1.0
# AST_VERS  = 05.01
0000 1420250610 8.2780
0001 1420251831 8.2811
0002 1420253051 8.2327
0003 1420254272 8.1548
0004 1420255493 8.0982
0005 1420256713 8.0972
0006 1420257934 8.0914
0007 1420259155 8.1018
0008 1420260375 8.0806
0009 1420261596 8.0641
0010 1420262817 8.2083
0011 1420264038 8.1985
0012 1420265258 8.3800
0013 1420266479 8.3119
0014 1420267700 8.1328
0015 1420268920 8.1965
0016 1420270141 8.1481
0017 1420271362 8.3453
0018 1420272583 8.3319
0019 1420273803 8.4424
0020 1420275024 8.2958
0021 1420276245 8.3786
0022 1420277465 8.3484
0023 1420278686 8.3550
0024 1420279907 8.3440
0025 1420281127 8.4874
0026 1420282348 8.4507
0027 1420283569 8.5474
0028 1420284790 8.3351
0029 1420286010 8.4193
0030 1420287231 8.5852
0031 1420288452 8.6541
0032 1420289672 8.6045
0033 1420290893 8.7455
0034 1420292114 8.7718
0035 1420293334 8.9594
0036 1420294555 8.8103
0037 1420295776 9.0411
0038 1420296997 8.7980
0039 1420298217 8.9617
0040 1420299438 8.9539
0041 1420300659 9.3009
0042 1420301879 9.2178
0043 1420303100 9.0511
0044 1420304321 9.1185
0045 1420305541 9.2293
0046 1420306762 9.1881
0047 1420307983 9.3564
0048 1420309204 9.2715
0049 1420310424 9.2701
0050 1420311645 9.3785
0051 1420312866 9.4071
0052 1420314086 9.3764
0053 1420315307 9.5046
0054 1420316528 9.5190
0055 1420317749 9.6950
0056 1420318969 9.8644
0057 1420320190 9.7788
0058 1420321411 9.7893
0059 1420322631 9.8675
0060 1420323852 10.0892
0061 1420325073 10.0133
0062 1420326293 10.1102
0063 1420327514 10.1553
0064 1420328735 10.1049
0065 1420329956 10.1106
0066 1420331176 10.3116
0067 1420332397 10.3322
0068 1420333618 10.2828
0069 1420334838 10.2612
0070 1420336059 10.4065
0071 1420337280 10.5921
0072 1420338500 10.4383
0073 1420339721 10.5641
0074 1420340942 10.5001
0075 1420342163 10.6656
0076 1420343383 10.7787
0077 1420344604 10.8793
0078 1420345825 11.0113
0079 1420347045 10.8933
0080 1420348266 10.9538
0081 1420349487 11.0389
0082 1420350708 11.2125
0083 1420351928 11.1331
0084 1420353149 11.2906
0085 1420354370 11.3124
0086 1420355590 11.4036
0087 1420356811 11.5677
0088 1420358032 11.6649
0089 1420359252 11.4588
0090 1420360473 11.6517
0091 1420361694 11.5949
0092 1420362915 11.7501
0093 1420364135 11.9617
0094 1420365356 11.9898
0095 1420366577 12.1165
0096 1420367797 12.0440
0097 1420369018 12.1113
0098 1420370239 12.1343
0099 1420371459 12.2620
0100 1420372680 12.5047
0101 1420373901 12.5434
0102 1420375122 12.5412
0103 1420376342 12.7255
0104 1420377563 12.7742
0105 1420378784 12.7592
0106 1420380004 12.9286
0107 1420381225 13.0187
0108 1420382446 12.9832
0109 1420383666 13.1537
0110 1420384887 13.2322
0111 1420386108 13.1252
0112 1420387329 13.3025
0113 1420388549 13.2687
0114 1420389770 13.5176
0115 1420390991 13.6916
0116 1420392211 13.6156
0117 1420393432 13.5505
0118 1420394653 13.6849
0119 1420395874 13.7992
0120 1420397094 13.7464
0121 1420398315 13.7676
0122 1420399536 13.9723
0123 1420400756 14.0753
0124 1420401977 14.3259
0125 1420403198 14.2633
0126 1420404418 14.5414
0127 1420405639 14.9324
0128 1420406860 14.7080
0129 1420408081 14.6741
0130 1420409301 14.7771
0131 1420410522 14.8537
0132 1420411743 15.0169
0133 1420412963 15.1456
0134 1420414184 15.0063
0135 1420415405 15.4035
0136 1420416625 15.9046
0137 1420417846 15.5326
0138 1420419067 15.3576
0139 1420420288 15.4448
0140 1420421508 15.6415
0141 1420422729 15.8203
0142 1420423950 16.1025
0143 1420425170 16.0406
0144 1420426391 16.0515
0145 1420427612 16.1814
0146 1420428833 16.4349
0147 1420430053 16.3141
0148 1420431274 16.2509
0149 1420432495 16.6734
0150 1420433715 16.7073
0151 1420434936 16.6214
0152 1420436157 16.7459
0153 1420437377 16.9129
0154 1420438598 17.0528
0155 1420439819 17.3102
0156 1420441040 17.0966
0157 1420442260 17.1653
0158 1420443481 17.6428
0159 1420444702 17.8472
0160 1420445922 17.6671
0161 1420447143 17.7484
0162 1420448364 17.8321
0163 1420449584 17.9111
0164 1420450805 17.9619
0165 1420452026 18.3481
0166 1420453247 18.4000
0167 1420454467 18.4719
0168 1420455688 18.6312
0169 1420456909 18.7690
0170 1420458129 19.0592
0171 1420459350 18.7693
0172 1420460571 19.0060
0173 1420461791 19.0749
0174 1420463012 19.0352
0175 1420464233 19.1964
0176 1420465454 19.2687
0177 1420466674 19.0775
0178 1420467895 19.5780
0179 1420469116 19.7112
0180 1420470336 19.7043
0181 1420471557 19.7833
0182 1420472778 19.7666
0183 1420473999 19.9935
0184 1420475219 20.1624
0185 1420476440 20.4960
0186 1420477661 20.5212
0187 1420478881 20.4318
0188 1420480102 20.7153
0189 1420481323 20.8229
0190 1420482543 20.6410
0191 1420483764 20.9441
0192 1420484985 21.0551
0193 1420486206 21.0642
0194 1420487426 21.1617
0195 1420488647 21.3811
0196 1420489868 21.3934
0197 1420491088 21.4217
0198 1420492309 21.3968
0199 1420493530 21.6526
0200 1420494750 22.0767
0201 1420495971 22.6617
0202 1420497192 22.2300
0203 1420498413 23.0689
0204 1420499633 23.8522
0205 1420500854 22.4479
0206 1420502075 22.5594
0207 1420503295 22.7371
0208 1420504516 22.6897
0209 1420505737 23.0850
0210 1420506958 22.7526
0211 1420508178 22.8672
0212 1420509399 22.7537
0213 1420510620 23.0778
0214 1420511840 23.1873
0215 1420513061 23.1950
0216 1420514282 23.5407
0217 1420515502 23.7194
0218 1420516723 23.8567
0219 1420517944 23.8335
0220 1420519165 23.8283
0221 1420520385 24.3574
0222 1420521606 24.2026
0223 1420522827 23.8887
0224 1420524047 24.1882
0225 1420525268 24.5564
0226 1420526489 24.7547
0227 1420527709 24.6551
0228 1420528930 25.0574
0229 1420530151 24.5978
0230 1420531372 25.2140
0231 1420532592 24.8061
0232 1420533813 25.2398
0233 1420535034 25.3610
0234 1420536254 25.3688
0235 1420537475 25.4272
0236 1420538696 25.3271
0237 1420539916 25.6351
0238 1420541137 25.6522
0239 1420542358 25.5439
0240 1420543579 25.7408
0241 1420544799 26.1667
0242 1420546020 26.4825
0243 1420547241 25.7726
0244 1420548461 26.2810
0245 1420549682 26.1878
0246 1420550903 26.7433
0247 1420552124 26.5469
0248 1420553344 26.5344
0249 1420554565 26.8612
0250 1420555786 26.9121
0251 1420557006 26.8555
0252 1420558227 27.0065
0253 1420559448 27.1270
0254 1420560668 27.1084
0255 1420561889 27.4370
0256 1420563110 27.3972
0257 1420564331 27.4938
0258 1420565551 27.3855
0259 1420566772 27.8932
0260 1420567993 27.7091
0261 1420569213 28.2342
0262 1420570434 28.1774
0263 1420571655 28.0144
0264 1420572875 28.3306
0265 1420574096 28.2948
0266 1420575317 28.7639
0267 1420576538 28.4272
0268 1420577758 28.7192
0269 1420578979 28.3384
0270 1420580200 28.7815
0271 1420581420 28.6334
0272 1420582641 29.6203
0273 1420583862 28.8453
0274 1420585083 29.1084
0275 1420586303 29.5395
0276 1420587524 29.4695
0277 1420588745 29.3251
0278 1420589965 29.2696
0279 1420591186 29.3693
0280 1420592407 29.3438
0281 1420593627 29.6925
0282 1420594848 30.1407
0283 1420596069 30.1999
0284 1420597290 30.1336
0285 1420598510 29.9080
0286 1420599731 30.2661
0287 1420600952 30.4330
0288 1420602172 30.1457
0289 1420603393 30.3294
0290 1420604614 30.7237
0291 1420605834 30.2389
0292 1420607055 30.5742
0293 1420608276 30.6291
0294 1420609497 30.2490
0295 1420610717 30.8583
0296 1420611938 30.5509
0297 1420613159 30.9759
0298 1420614379 31.7458
0299 1420615600 31.2447
0300 1420616821 31.4887
0301 1420618041 31.6218
0302 1420619262 31.4041
0303 1420620483 31.2306
0304 1420621704 31.9050
0305 1420622924 31.4994
0306 1420624145 31.5969
0307 1420625366 31.9135
0308 1420626586 31.8870
0309 1420627807 32.1880
0310 1420629028 32.0753
0311 1420630249 32.1069
0312 1420631469 31.7537
0313 1420632690 32.5171
0314 1420633911 32.8447
0315 1420635131 34.6939
0316 1420636352 33.0065
0317 1420637573 32.6396
0318 1420638793 32.5887
0319 1420640014 32.3439
0320 1420641235 33.0195
0321 1420642456 32.7164
0322 1420643676 32.6379
0323 1420644897 32.6884
0324 1420646118 33.3461
0325 1420647338 32.9266
0326 1420648559 33.4769
0327 1420649780 33.2349
0328 1420651000 32.7672
0329 1420652221 33.4062
0330 1420653442 33.4361
0331 1420654663 33.3014
0332 1420655883 33.7426
0333 1420657104 33.5654
0334 1420658325 34.0129
0335 1420659545 33.6904
0336 1420660766 33.9481
0337 1420661987 33.7104
0338 1420663208 33.9990
0339 1420664428 33.7521
0340 1420665649 33.7516
0341 1420666870 33.8680
0342 1420668090 33.9124
0343 1420669311 34.0026
0344 1420670532 33.9765
0345 1420671752 34.4505
0346 1420672973 33.7812
0347 1420674194 33.6353
0348 1420675415 33.9754
0349 1420676635 33.9826
0350 1420677856 33.9721
0351 1420679077 34.4311
0352 1420680297 34.7340
0353 1420681518 34.5871
0354 1420682739 34.8450
0355 1420683959 34.7238
0356 1420685180 34.4625
0357 1420686401 34.8363
0358 1420687622 34.8437
0359 1420688842 35.2832
0360 1420690063 35.0677
0361 1420691284 35.6425
0362 1420692504 35.7567
0363 1420693725 35.5826
0364 1420694946 35.5770
0365 1420696166 35.6391
0366 1420697387 35.0353
0367 1420698608 35.5129
0368 1420699829 35.2732
0369 1420701049 35.0151
0370 1420702270 35.5041
0371 1420703491 35.5479
0372 1420704711 34.9327
0373 1420705932 35.5949
0374 1420707153 35.7840
0375 1420708374 35.4742
0376 1420709594 35.3909
0377 1420710815 35.6808
0378 1420712036 35.6905
0379 1420713256 35.5123
0380 1420714477 35.8993
0381 1420715698 35.7043
0382 1420716918 35.9119
0383 1420718139 35.9760
0384 1420719360 35.6008
0385 1420720581 36.3404
0386 1420721801 35.8027
0387 1420723022 36.2129
0388 1420724243 36.3458
0389 1420725463 35.4711
0390 1420726684 36.3475
0391 1420727905 36.5588
0392 1420729125 36.0928
0393 1420730346 35.8572
0394 1420731567 35.7638
0395 1420732788 36.1536
0396 1420734008 36.5722
0397 1420735229 36.5478
0398 1420736450 36.7104
0399 1420737670 36.7037
0400 1420738891 36.1315
0401 1420740112 36.1805
0402 1420741333 36.2858
0403 1420742553 36.2842
0404 1420743774 36.3478
0405 1420744995 36.3066
0406 1420746215 36.4354
0407 1420747436 36.7040
0408 1420748657 36.6961
0409 1420749877 36.9186
0410 1420751098 36.7003
0411 1420752319 36.7531
0412 1420753540 36.9686
0413 1420754760 37.3675
0414 1420755981 37.0194
0415 1420757202 37.0137
0416 1420758422 36.2906
0417 1420759643 36.9359
0418 1420760864 36.7519
0419 1420762084 36.5006
0420 1420763305 37.5642
0421 1420764526 37.0446
0422 1420765747 36.8189
0423 1420766967 36.9887
0424 1420768188 36.8932
0425 1420769409 37.5698
0426 1420770629 38.0712
0427 1420771850 36.4949
0428 1420773071 37.1294
0429 1420774291 37.1999
0430 1420775512 36.8876
0431 1420776733 36.8039
0432 1420777954 37.6021
0433 1420779174 36.9414
0434 1420780395 36.7561
0435 1420781616 37.1081
0436 1420782836 37.5008
0437 1420784057 37.4369
0438 1420785278 36.7990
0439 1420786499 37.1204
0440 1420787719 36.8181
0441 1420788940 36.5555
0442 1420790161 36.6102
0443 1420791381 36.8465
0444 1420792602 37.3327
0445 1420793823 36.9970
0446 1420795043 37.3646
0447 1420796264 37.2009
0448 1420797485 37.4439
0449 1420798706 37.0656
0450 1420799926 39.0153
0451 1420801147 39.2089
0452 1420802368 37.6236
0453 1420803588 37.1637
0454 1420804809 40.7164
0455 1420806030 41.9868
0456 1420807250 37.4295
0457 1420808471 36.8108
0458 1420809692 36.8935
0459 1420810913 37.1203
0460 1420812133 37.4973
0461 1420813354 37.4613
0462 1420814575 37.2905
0463 1420815795 37.4752
0464 1420817016 37.2656
0465 1420818237 37.1202
0466 1420819458 37.9454
0467 1420820678 37.9093
0468 1420821899 37.5039
0469 1420823120 37.6777
0470 1420824340 37.4691
0471 1420825561 37.5842
0472 1420826782 36.6960
0473 1420828002 37.3836
0474 1420829223 37.3008
0475 1420830444 37.4411
0476 1420831665 37.5675
0477 1420832885 37.6797
0478 1420834106 37.4410
0479 1420835327 37.4925
0480 1420836547 37.1875
0481 1420837768 38.1175
0482 1420838989 37.1127
0483 1420840209 36.4479
0484 1420841430 37.4164
0485 1420842651 37.1744
0486 1420843872 37.9948
0487 1420845092 37.1448
0488 1420846313 36.8707
0489 1420847534 37.5680
0490 1420848754 37.5131
0491 1420849975 37.1932
0492 1420851196 37.0220
0493 1420852416 37.7261
0494 1420853637 37.4375
0495 1420854858 37.4353
0496 1420856079 37.1312
0497 1420857299 36.9372
0498 1420858520 37.3771
0499 1420859741 37.5932
0500 1420860961 37.2171
0501 1420862182 37.4137
0502 1420863403 37.8683
0503 1420864624 37.2863
0504 1420865844 37.6274
0505 1420867065 37.2100
0506 1420868286 36.7946
0507 1420869506 36.9282
0508 1420870727 37.1573
0509 1420871948 36.8731
0510 1420873168 37.6747
0511 1420874389 37.4312
0512 1420875610 37.2761
0513 1420876831 36.9238
0514 1420878051 37.8412
0515 1420879272 37.0089
0516 1420880493 37.5359
0517 1420881713 37.3109
0518 1420882934 37.2248
0519 1420884155 37.1583
0520 1420885375 36.9370
0521 1420886596 36.8295
0522 1420887817 37.1047
0523 1420889038 37.4025
0524 1420890258 36.8441
0525 1420891479 36.7812
0526 1420892700 36.7334
0527 1420893920 37.0561
0528 1420895141 36.9289
0529 1420896362 37.3614
0530 1420897583 37.6735
0531 1420898803 37.5656
0532 1420900024 37.4328
0533 1420901245 37.3234
0534 1420902465 37.2104
0535 1420903686 36.9995
0536 1420904907 37.0078
0537 1420906127 36.9904
0538 1420907348 37.7108
0539 1420908569 37.4861
0540 1420909790 37.4279
0541 1420911010 37.0576
0542 1420912231 36.9200
0543 1420913452 37.1534
0544 1420914672 37.4399
0545 1420915893 37.3494
0546 1420917114 36.7153
0547 1420918334 37.6083
0548 1420919555 37.2465
0549 1420920776 36.9895
0550 1420921997 36.7780
0551 1420923217 36.9997
0552 1420924438 36.9245
0553 1420925659 36.8908
0554 1420926879 36.9533
0555 1420928100 37.0500
0556 1420929321 36.9432
0557 1420930541 37.1645
0558 1420931762 36.9850
0559 1420932983 37.2693
0560 1420934204 36.9188
0561 1420935424 37.1007
0562 1420936645 36.6698
0563 1420937866 37.3019
0564 1420939086 37.7201
0565 1420940307 37.3886
0566 1420941528 37.1826
0567 1420942749 37.2514
0568 1420943969 37.2303
0569 1420945190 36.7831
0570 1420946411 36.8861
0571 1420947631 37.1021
0572 1420948852 36.6491
0573 1420950073 36.3000
0574 1420951293 37.1291
0575 1420952514 37.0676
0576 1420953735 36.3597
0577 1420954956 36.9425
0578 1420956176 37.0902
0579 1420957397 36.9178
0580 1420958618 36.7374
0581 1420959838 37.1939
0582 1420961059 36.5548
0583 1420962280 36.2533
0584 1420963500 36.8912
0585 1420964721 37.1151
0586 1420965942 36.9370
0587 1420967163 36.5322
0588 1420968383 37.6042
0589 1420969604 36.7859
0590 1420970825 36.2186
0591 1420972045 36.4813
0592 1420973266 36.4258
0593 1420974487 36.6147
0594 1420975708 37.2000
0595 1420976928 36.6087
0596 1420978149 36.5996
0597 1420979370 37.0180
0598 1420980590 36.8203
0599 1420981811 37.1698
0600 1420983032 36.8017
0601 1420984252 37.2556
0602 1420985473 37.0870
0603 1420986694 36.7209
0604 1420987915 36.4933
0605 1420989135 36.4998
0606 1420990356 36.8728
0607 1420991577 36.4250
0608 1420992797 37.1680
0609 1420994018 36.6359
0610 1420995239 37.3556
0611 1420996459 36.8609
0612 1420997680 36.8081
0613 1420998901 37.1163
0614 1421000122 37.0386
0615 1421001342 36.5590
0616 1421002563 37.1101
0617 1421003784 36.2906
0618 1421005004 37.2995
0619 1421006225 37.2231
0620 1421007446 36.6826
0621 1421008666 37.2776
0622 1421009887 36.8919
0623 1421011108 36.7887
0624 1421012329 37.0140
0625 1421013549 36.9172
0626 1421014770 37.4912
0627 1421015991 36.7153
0628 1421017211 36.5742
0629 1421018432 37.5692
0630 1421019653 36.9478
0631 1421020874 37.0727
0632 1421022094 36.9512
0633 1421023315 37.2529
0634 1421024536 36.7441
0635 1421025756 37.0605
0636 1421026977 36.7076
0637 1421028198 36.7029
0638 1421029418 37.1523
0639 1421030639 36.8444
0640 1421031860 36.5141
0641 1421033081 36.6759
0642 1421034301 37.4103
0643 1421035522 37.1463
0644 1421036743 37.3402
0645 1421037963 37.0798
0646 1421039184 36.0450
0647 1421040405 36.8151
0648 1421041625 36.5502
0649 1421042846 36.8466
0650 1421044067 37.1922
0651 1421045288 37.0245
0652 1421046508 37.2668
0653 1421047729 37.2002
0654 1421048950 36.9952
0655 1421050170 37.3290
0656 1421051391 37.2549
0657 1421052612 37.5620
0658 1421053833 37.2140
0659 1421055053 36.9756
0660 1421056274 36.9985
0661 1421057495 36.8404
0662 1421058715 36.6289
0663 1421059936 36.4927
0664 1421061157 37.0972
0665 1421062377 37.2345
0666 1421063598 37.7038
0667 1421064819 36.9892
0668 1421066040 36.6401
0669 1421067260 37.3999
0670 1421068481 37.1155
0671 1421069702 37.5249
0672 1421070922 37.3532
0673 1421072143 36.9081
0674 1421073364 37.1988
0675 1421074584 36.8501
0676 1421075805 37.2917
0677 1421077026 37.3270
0678 1421078247 37.4684
0679 1421079467 37.4625
0680 1421080688 37.6737
0681 1421081909 37.0179
0682 1421083129 36.9807
0683 1421084350 37.2791
0684 1421085571 37.2940
0685 1421086791 36.9108
0686 1421088012 37.0778
0687 1421089233 37.3732
0688 1421090454 37.6418
0689 1421091674 36.9685
0690 1421092895 37.3897
0691 1421094116 37.6704
0692 1421095336 37.5014
0693 1421096557 37.2538
0694 1421097778 37.0077
0695 1421098999 37.3471
0696 1421100219 37.6380
0697 1421101440 37.8475
0698 1421102661 37.9248
0699 1421103881 37.3810
0700 1421105102 37.7974
0701 1421106323 37.4871
0702 1421107543 37.4635
0703 1421108764 37.4659
0704 1421109985 37.8897
0705 1421111206 37.4221
0706 1421112426 37.9144
0707 1421113647 38.0415
0708 1421114868 37.5048
0709 1421116088 37.9849
0710 1421117309 37.6516
0711 1421118530 38.1159
0712 1421119750 37.8419
0713 1421120971 37.9069
0714 1421122192 37.7739
0715 1421123413 37.9272
0716 1421124633 37.8934
0717 1421125854 37.7285
0718 1421127075 37.8676
0719 1421128295 37.8997
0720 1421129516 37.9807
0721 1421130737 38.2914
0722 1421131958 37.8531
0723 1421133178 38.2516
0724 1421134399 37.7220
0725 1421135620 38.2199
0726 1421136840 38.1361
0727 1421138061 37.8194
0728 1421139282 38.1255
0729 1421140502 38.3832
0730 1421141723 38.1400
0731 1421142944 38.6719
0732 1421144165 38.1025
0733 1421145385 38.3359
0734 1421146606 38.3111
0735 1421147827 38.7193
0736 1421149047 37.9292
0737 1421150268 38.3984
0738 1421151489 38.3778
0739 1421152709 38.7714
0740 1421153930 38.2496
0741 1421155151 38.1237
0742 1421156372 38.4603
0743 1421157592 38.6568
0744 1421158813 38.8281
0745 1421160034 38.4775
0746 1421161254 38.1847
0747 1421162475 38.0102
0748 1421163696 38.2964
0749 1421164916 38.6707
0750 1421166137 38.7855
0751 1421167358 38.6724
0752 1421168579 38.9211
0753 1421169799 38.2948
0754 1421171020 38.5400
0755 1421172241 38.7910
0756 1421173461 39.0143
0757 1421174682 38.5247
0758 1421175903 38.8168
0759 1421177124 38.8886
0760 1421178344 39.4464
0761 1421179565 39.0571
0762 1421180786 38.3405
0763 1421182006 38.9977
0764 1421183227 39.0536
0765 1421184448 39.5844
0766 1421185668 39.6623
0767 1421186889 39.8128
0768 1421188110 39.3381
0769 1421189331 38.3405
0770 1421190551 39.0473
0771 1421191772 39.3650
0772 1421192993 39.3327
0773 1421194213 38.9979
0774 1421195434 39.3266
0775 1421196655 39.3289
0776 1421197875 39.4375
0777 1421199096 39.6906
0778 1421200317 39.8883
0779 1421201538 39.2852
0780 1421202758 39.8166
0781 1421203979 40.3968
0782 1421205200 40.6362
0783 1421206420 39.7157
0784 1421207641 39.7857
0785 1421208862 39.5136
0786 1421210083 39.3951
0787 1421211303 39.6904
0788 1421212524 39.5030
0789 1421213745 39.4578
0790 1421214965 39.3284
0791 1421216186 40.2981
0792 1421217407 40.0575
0793 1421218627 40.3767
0794 1421219848 39.5434
0795 1421221069 40.5811
0796 1421222290 40.1515
0797 1421223510 40.4622
0798 1421224731 40.1906
0799 1421225952 39.9639
0800 1421227172 39.9798
0801 1421228393 40.5989
0802 1421229614 40.8820
0803 1421230834 40.5277
0804 1421232055 40.9587
0805 1421233276 39.8694
0806 1421234497 40.7268
0807 1421235717 40.4021
0808 1421236938 40.3294
0809 1421238159 40.6570
0810 1421239379 40.8308
0811 1421240600 40.8952
0812 1421241821 40.8254
0813 1421243041 41.1380
0814 1421244262 40.9447
0815 1421245483 40.4477
0816 1421246704 41.5018
0817 1421247924 40.6936
0818 1421249145 40.6614
0819 1421250366 40.9642
0820 1421251586 40.9193
0821 1421252807 40.5976
0822 1421254028 40.6964
0823 1421255249 40.7443
0824 1421256469 40.9645
0825 1421257690 41.0525
0826 1421258911 41.2227
0827 1421260131 41.6182
0828 1421261352 41.2102
0829 1421262573 41.0292
0830 1421263793 41.2206
0831 1421265014 40.6427
0832 1421266235 40.9216
0833 1421267456 41.3700
0834 1421268676 41.3329
0835 1421269897 41.2909
0836 1421271118 41.0506
0837 1421272338 41.6560
0838 1421273559 42.2984
0839 1421274780 41.8983
0840 1421276000 41.5976
0841 1421277221 41.6181
0842 1421278442 41.8435
0843 1421279663 41.6681
0844 1421280883 41.4713
0845 1421282104 41.8172
0846 1421283325 41.7755
0847 1421284545 41.6482
0848 1421285766 41.8102
0849 1421286987 42.0735
0850 1421288208 41.8881
0851 1421289428 41.8151
0852 1421290649 42.2020
0853 1421291870 41.8188
0854 1421293090 42.1360
0855 1421294311 41.8873
0856 1421295532 42.4608
0857 1421296752 41.8705
0858 1421297973 42.6052
0859 1421299194 42.4073
0860 1421300415 42.3217
0861 1421301635 43.3299
0862 1421302856 42.0299
0863 1421304077 41.5468
0864 1421305297 43.1574
0865 1421306518 42.0186
0866 1421307739 42.8605
0867 1421308959 42.3341
0868 1421310180 42.8842
0869 1421311401 42.6980
0870 1421312622 42.6289
0871 1421313842 42.6653
0872 1421315063 43.3369
0873 1421316284 43.4217
0874 1421317504 43.5596
0875 1421318725 42.8259
0876 1421319946 42.8597
0877 1421321166 43.1651
0878 1421322387 43.2099
0879 1421323608 43.4930
0880 1421324829 42.6520
0881 1421326049 42.8229
0882 1421327270 44.0301
0883 1421328491 43.0780
0884 1421329711 42.6162
0885 1421330932 43.2611
0886 1421332153 42.8482
0887 1421333374 44.0863
0888 1421334594 43.4600
0889 1421335815 43.3620
0890 1421337036 43.4414
0891 1421338256 43.6294
0892 1421339477 43.3823
0893 1421340698 43.4694
0894 1421341918 43.8142
0895 1421343139 43.7785
0896 1421344360 43.6055
0897 1421345581 43.7179
0898 1421346801 43.7120
0899 1421348022 43.5169
0900 1421349243 43.5932
0901 1421350463 43.9386
0902 1421351684 44.3289
0903 1421352905 43.8337
0904 1421354125 44.1327
0905 1421355346 44.4765
0906 1421356567 44.4711
0907 1421357788 44.4912
0908 1421359008 44.3327
0909 1421360229 44.0288
0910 1421361450 44.2684
0911 1421362670 44.2513
0912 1421363891 43.8297
0913 1421365112 44.0043
0914 1421366333 43.8624
0915 1421367553 44.7545
0916 1421368774 44.5601
0917 1421369995 44.0538
0918 1421371215 44.3601
0919 1421372436 43.7553
0920 1421373657 43.5336
0921 1421374877 43.7777
0922 1421376098 44.2479
0923 1421377319 44.5879
0924 1421378540 44.5520
0925 1421379760 45.0563
0926 1421380981 44.5253
0927 1421382202 44.8574
0928 1421383422 45.2092
0929 1421384643 44.6179
0930 1421385864 45.2390
0931 1421387084 44.5384
0932 1421388305 44.5699
0933 1421389526 45.1061
0934 1421390747 44.4795
0935 1421391967 44.8011
0936 1421393188 44.8171
0937 1421394409 45.1181
0938 1421395629 44.6150
0939 1421396850 44.9144
0940 1421398071 44.6392
0941 1421399291 45.0374
0942 1421400512 44.9499
0943 1421401733 44.8964
0944 1421402954 44.8137
0945 1421404174 45.1556
0946 1421405395 45.2286
0947 1421406616 45.3984
0948 1421407836 45.2924
0949 1421409057 45.2302
0950 1421410278 45.4446
0951 1421411499 45.2588
0952 1421412719 44.9765
0953 1421413940 45.8265
0954 1421415161 45.5840
0955 1421416381 45.7724
0956 1421417602 45.1705
0957 1421418823 45.2972
0958 1421420043 45.9722
0959 1421421264 45.5773
0960 1421422485 45.4987
0961 1421423706 45.6351
0962 1421424926 45.7034
0963 1421426147 45.5310
0964 1421427368 45.1146
0965 1421428588 45.6980
0966 1421429809 45.9048
0967 1421431030 45.8695
0968 1421432250 46.0412
0969 1421433471 45.4338
0970 1421434692 46.1510
0971 1421435913 45.6636
0972 1421437133 45.7905
0973 1421438354 46.5444
0974 1421439575 45.9495
0975 1421440795 46.5764
0976 1421442016 46.3757
0977 1421443237 45.6840
0978 1421444458 46.5267
0979 1421445678 46.7069
0980 1421446899 46.8276
0981 1421448120 46.5520
0982 1421449340 45.9449
0983 1421450561 45.8750
0984 1421451782 46.4165
0985 1421453002 46.6863
0986 1421454223 46.9325
0987 1421455444 47.1006
0988 1421456665 47.0369
0989 1421457885 46.3934
0990 1421459106 46.3296
0991 1421460327 46.5337
0992 1421461547 46.1085
0993 1421462768 46.0134
0994 1421463989 46.3517
0995 1421465209 46.9433
0996 1421466430 46.4000
0997 1421467651 46.5714
0998 1421468872 46.4298
0999 1421470092 46.7510
1000 1421471313 46.9866
1001 1421472534 47.1134
1002 1421473754 46.2647
1003 1421474975 46.2850
1004 1421476196 46.8370
1005 1421477416 47.0422
1006 1421478637 47.0284
1007 1421479858 46.9642
1008 1421481079 46.1746
1009 1421482299 46.6946
1010 1421483520 47.9964
1011 1421484741 47.2159
1012 1421485961 47.4979
1013 1421487182 47.0241
1014 1421488403 47.1515
1015 1421489624 47.6133
1016 1421490844 47.9903
1017 1421492065 48.4961
1018 1421493286 48.7871
1019 1421494506 49.2775
1020 1421495727 49.6879
1021 1421496948 49.8717
1022 1421498168 51.9481
1023 1421499389 52.8177
1024 1421500610 48.3633
1025 1421501831 52.0795
1026 1421503051 52.0074
1027 1421504272 50.1488
1028 1421505493 49.5371
1029 1421506713 49.1269
1030 1421507934 48.5852
1031 1421509155 48.3858
1032 1421510375 48.5573
1033 1421511596 47.4367
1034 1421512817 47.4209
1035 1421514038 47.7327
1036 1421515258 47.4608
1037 1421516479 47.5666
1038 1421517700 46.9707
1039 1421518920 47.0254
1040 1421520141 47.2468
1041 1421521362 47.1234
1042 1421522583 46.6829
1043 1421523803 46.9014
1044 1421525024 46.7299
1045 1421526245 47.6974
1046 1421527465 46.9093
1047 1421528686 46.8682
1048 1421529907 46.7585
1049 1421531127 46.8262
1050 1421532348 47.0614
1051 1421533569 46.7145
1052 1421534790 46.5237
1053 1421536010 46.5673
1054 1421537231 46.6671
1055 1421538452 46.0449
1056 1421539672 46.2639
1057 1421540893 46.5501
1058 1421542114 46.8983
1059 1421543334 46.6969
1060 1421544555 46.8947
1061 1421545776 46.5922
1062 1421546997 47.0113
1063 1421548217 46.4910
1064 1421549438 46.5235
1065 1421550659 46.6263
1066 1421551879 46.5676
1067 1421553100 46.3792
1068 1421554321 47.2126
1069 1421555541 46.6126
1070 1421556762 46.2893
1071 1421557983 46.0321
1072 1421559204 46.0425
1073 1421560424 46.0470
1074 1421561645 45.8022
1075 1421562866 46.0195
1076 1421564086 46.0286
1077 1421565307 46.3953
1078 1421566528 45.9426
1079 1421567749 45.9985
1080 1421568969 46.1701
1081 1421570190 46.3021
1082 1421571411 46.0426
1083 1421572631 46.9005
1084 1421573852 46.0314
1085 1421575073 46.2914
1086 1421576293 45.9568
1087 1421577514 46.2100
1088 1421578735 46.0402
1089 1421579956 45.4926
1090 1421581176 45.8293
1091 1421582397 46.0190
1092 1421583618 46.0090
1093 1421584838 45.9977
1094 1421586059 45.9998
1095 1421587280 46.0811
1096 1421588500 45.0008
1097 1421589721 46.2331
1098 1421590942 45.7534
1099 1421592163 45.9120
1100 1421593383 45.6907
1101 1421594604 45.8269
1102 1421595825 45.3158
1103 1421597045 45.0737
1104 1421598266 45.7168
1105 1421599487 45.8426
1106 1421600708 45.8763
1107 1421601928 45.3850
1108 1421603149 45.6615
1109 1421604370 46.1866
1110 1421605590 46.0045
1111 1421606811 44.9214
1112 1421608032 45.0535
1113 1421609252 45.6828
1114 1421610473 45.6092
1115 1421611694 45.0676
1116 1421612915 44.6520
1117 1421614135 45.0088
1118 1421615356 44.7158
1119 1421616577 45.1142
1120 1421617797 45.1233
1121 1421619018 44.5534
1122 1421620239 44.9683
1123 1421621459 45.1024
1124 1421622680 44.9891
1125 1421623901 45.2799
1126 1421625122 44.5483
1127 1421626342 44.2096
1128 1421627563 44.9706
1129 1421628784 44.4296
1130 1421630004 44.9860
1131 1421631225 44.3641
1132 1421632446 45.2813
1133 1421633666 44.4019
1134 1421634887 45.2138
1135 1421636108 45.0824
1136 1421637329 44.5765
1137 1421638549 44.8535
1138 1421639770 45.2401
1139 1421640991 44.5160
1140 1421642211 44.3180
1141 1421643432 44.1767
1142 1421644653 45.0600
1143 1421645874 44.7904
1144 1421647094 45.1536
1145 1421648315 44.3631
1146 1421649536 44.2620
1147 1421650756 44.5858
1148 1421651977 43.8416
1149 1421653198 44.2731
1150 1421654418 43.9794
1151 1421655639 44.1151
1152 1421656860 44.7205
1153 1421658081 43.7931
1154 1421659301 44.0194
1155 1421660522 44.0777
1156 1421661743 44.1103
1157 1421662963 44.3046
1158 1421664184 44.1072
1159 1421665405 44.3172
1160 1421666625 44.1840
1161 1421667846 44.0443
1162 1421669067 43.5957
1163 1421670288 44.4483
1164 1421671508 44.0796
1165 1421672729 43.7380
1166 1421673950 43.8644
1167 1421675170 43.7937
1168 1421676391 43.6825
1169 1421677612 43.3556
1170 1421678833 43.7615
1171 1421680053 43.3888
1172 1421681274 43.0836
1173 1421682495 43.4535
1174 1421683715 43.2262
1175 1421684936 43.2966
1176 1421686157 43.3880
1177 1421687377 42.8500
1178 1421688598 43.5055
1179 1421689819 43.4182
1180 1421691040 43.7108
1181 1421692260 42.8948
1182 1421693481 43.1276
1183 1421694702 43.6170
1184 1421695922 43.6900
1185 1421697143 43.4086
1186 1421698364 43.3425
1187 1421699584 42.6774
1188 1421700805 42.9037
1189 1421702026 43.3641
1190 1421703247 43.0723
1191 1421704467 42.4163
1192 1421705688 43.4514
1193 1421706909 42.5333
1194 1421708129 42.8070
1195 1421709350 42.9403
1196 1421710571 43.1139
1197 1421711791 42.7722
1198 1421713012 42.1589
1199 1421714233 42.2234
1200 1421715454 42.9086
1201 1421716674 42.2671
1202 1421717895 43.2595
1203 1421719116 41.9962
1204 1421720336 42.8001
1205 1421721557 42.7739
1206 1421722778 42.2518
1207 1421723999 42.4608
1208 1421725219 42.7385
1209 1421726440 42.2157
1210 1421727661 41.9321
1211 1421728881 41.7335
1212 1421730102 42.6627
1213 1421731323 42.4612
1214 1421732543 42.1838
1215 1421733764 41.9988
1216 1421734985 42.5111
1217 1421736206 41.4253
1218 1421737426 41.8852
1219 1421738647 42.2633
1220 1421739868 41.8481
1221 1421741088 42.2219
1222 1421742309 41.8092
1223 1421743530 41.9794
1224 1421744750 42.3613
1225 1421745971 42.7140
1226 1421747192 42.0051
1227 1421748413 41.8740
1228 1421749633 41.7764
1229 1421750854 41.7569
1230 1421752075 41.8827
1231 1421753295 41.3104
1232 1421754516 41.2532
1233 1421755737 41.4743
1234 1421756958 41.6542
1235 1421758178 41.2666
1236 1421759399 41.9529
1237 1421760620 41.1987
1238 1421761840 41.7748
1239 1421763061 41.6425
1240 1421764282 41.5512
1241 1421765502 41.3762
1242 1421766723 41.7688
1243 1421767944 40.9272
1244 1421769165 40.8116
1245 1421770385 40.8986
1246 1421771606 40.7923
1247 1421772827 40.8615
1248 1421774047 41.0447
1249 1421775268 40.9856
1250 1421776489 40.8987
1251 1421777709 41.4179
1252 1421778930 40.7154
1253 1421780151 40.7669
1254 1421781372 41.2302
1255 1421782592 41.0446
1256 1421783813 40.7350
1257 1421785034 40.7312
1258 1421786254 41.3218
1259 1421787475 40.6069
1260 1421788696 40.4649
1261 1421789916 40.2609
1262 1421791137 40.7328
1263 1421792358 39.9726
1264 1421793579 40.6343
1265 1421794799 40.3950
1266 1421796020 40.8456
1267 1421797241 40.4706
1268 1421798461 39.7198
1269 1421799682 40.0786
1270 1421800903 40.7204
1271 1421802124 40.2552
1272 1421803344 40.7634
1273 1421804565 40.1052
1274 1421805786 39.9557
1275 1421807006 41.1883
1276 1421808227 47.4233
1277 1421809448 41.9448
1278 1421810668 40.1715
1279 1421811889 39.8591
1280 1421813110 40.1482
1281 1421814331 39.8834
1282 1421815551 40.0517
1283 1421816772 39.6017
1284 1421817993 40.0639
1285 1421819213 40.1397
1286 1421820434 39.6423
1287 1421821655 39.6286
1288 1421822875 40.0331
1289 1421824096 39.4103
1290 1421825317 40.3052
1291 1421826538 40.0857
1292 1421827758 39.7618
1293 1421828979 40.0281
1294 1421830200 39.5807
1295 1421831420 39.7449
1296 1421832641 39.9939
1297 1421833862 40.1223
1298 1421835083 39.5819
1299 1421836303 39.1923
1300 1421837524 39.4179
1301 1421838745 39.3711
1302 1421839965 39.6083
1303 1421841186 39.3106
1304 1421842407 39.4937
1305 1421843627 38.7301
1306 1421844848 39.1800
1307 1421846069 39.3576
1308 1421847290 39.3794
1309 1421848510 39.0376
1310 1421849731 38.9554
1311 1421850952 39.1022
1312 1421852172 40.0610
1313 1421853393 39.1222
1314 1421854614 39.0818
1315 1421855834 39.3801
1316 1421857055 39.5934
1317 1421858276 39.0226
1318 1421859497 39.2203
1319 1421860717 39.1791
1320 1421861938 39.2812
1321 1421863159 38.7523
1322 1421864379 38.9334
1323 1421865600 38.8887
1324 1421866821 39.4255
1325 1421868041 39.7344
1326 1421869262 40.7806
1327 1421870483 40.8533
1328 1421871704 40.7701
1329 1421872924 39.9731
1330 1421874145 39.3788
1331 1421875366 39.4364
1332 1421876586 38.5283
1333 1421877807 39.0005
1334 1421879028 38.7344
1335 1421880249 38.9892
1336 1421881469 38.9029
1337 1421882690 39.0401
1338 1421883911 38.6041
1339 1421885131 39.1089
1340 1421886352 38.8568
1341 1421887573 38.6862
1342 1421888793 38.9870
1343 1421890014 38.8456
1344 1421891235 38.9970
1345 1421892456 38.2956
1346 1421893676 39.1436
1347 1421894897 38.8681
1348 1421896118 38.9772
1349 1421897338 38.3598
1350 1421898559 38.3226
1351 1421899780 38.1982
1352 1421901000 38.5149
1353 1421902221 38.6453
1354 1421903442 38.1471
1355 1421904663 38.4492
1356 1421905883 38.1843
1357 1421907104 38.3000
1358 1421908325 38.5110
1359 1421909545 38.5030
1360 1421910766 39.0136
1361 1421911987 38.4955
1362 1421913208 38.5708
1363 1421914428 38.4809
1364 1421915649 38.7507
1365 1421916870 38.1265
1366 1421918090 38.2602
1367 1421919311 37.9687
1368 1421920532 38.6354
1369 1421921752 38.6327
1370 1421922973 38.5823
1371 1421924194 38.3658
1372 1421925415 38.4573
1373 1421926635 38.5354
1374 1421927856 38.7986
1375 1421929077 37.9011
1376 1421930297 37.6310
1377 1421931518 38.0051
1378 1421932739 38.4890
1379 1421933959 38.3146
1380 1421935180 38.5204
1381 1421936401 38.2540
1382 1421937622 38.6731
1383 1421938842 38.5867
1384 1421940063 37.4987
1385 1421941284 38.1596
1386 1421942504 37.7634
1387 1421943725 37.9775
1388 1421944946 38.2789
1389 1421946166 38.3944
1390 1421947387 39.2401
1391 1421948608 38.4582
1392 1421949829 37.6747
1393 1421951049 38.2523
1394 1421952270 38.3267
1395 1421953491 38.2749
1396 1421954711 38.3575
1397 1421955932 38.5101
1398 1421957153 38.4003
1399 1421958374 38.8446
1400 1421959594 38.5020
1401 1421960815 38.1110
1402 1421962036 38.4307
1403 1421963256 38.1657
1404 1421964477 38.3679
1405 1421965698 38.9695
1406 1421966918 38.3922
1407 1421968139 38.2339
1408 1421969360 37.8161
1409 1421970581 38.0992
1410 1421971801 38.3068
1411 1421973022 38.9722
1412 1421974243 38.6470
1413 1421975463 38.7325
1414 1421976684 39.3718
1415 1421977905 39.3242
1416 1421979125 39.4334
1417 1421980346 38.6707
1418 1421981567 38.5085
1419 1421982788 38.2334
1420 1421984008 38.2271
1421 1421985229 38.1122
1422 1421986450 38.2131
1423 1421987670 38.2003
1424 1421988891 38.7228
1425 1421990112 38.3788
1426 1421991333 38.3738
1427 1421992553 38.4967
1428 1421993774 38.2489
1429 1421994995 38.1242
1430 1421996215 38.1697
1431 1421997436 37.7289
1432 1421998657 38.2654
1433 1421999877 38.5158
1434 1422001098 38.7581
1435 1422002319 38.2949
1436 1422003540 41.0630
1437 1422004760 214.5253
1438 1422005981 302.3438
1439 1422007202 48.4915
1440 1422008422 38.5956
1441 1422009643 38.7380
1442 1422010864 39.1689
1443 1422012084 38.7309
1444 1422013305 38.5744
1445 1422014526 38.6715
1446 1422015747 38.6580
1447 1422016967 38.7726
1448 1422018188 39.0320
1449 1422019409 38.9231
1450 1422020629 38.2453
1451 1422021850 38.8726
1452 1422023071 38.5423
1453 1422024291 38.5626
1454 1422025512 38.5231
1455 1422026733 38.5652
1456 1422027954 38.8965
1457 1422029174 38.8598
1458 1422030395 38.2052
1459 1422031616 38.2999
1460 1422032836 38.2591
1461 1422034057 38.4760
1462 1422035278 38.9357
1463 1422036499 38.6656
1464 1422037719 38.4316
1465 1422038940 38.4161
1466 1422040161 38.6376
1467 1422041381 38.0490
1468 1422042602 38.9743
1469 1422043823 39.1926
1470 1422045043 39.1357
1471 1422046264 39.1105
1472 1422047485 39.0402
1473 1422048706 38.3589
1474 1422049926 39.2526
1475 1422051147 38.5942
1476 1422052368 38.6154
1477 1422053588 38.4168
1478 1422054809 38.4048
1479 1422056030 38.8456
1480 1422057250 38.5620
1481 1422058471 38.5473
1482 1422059692 38.8588
1483 1422060913 38.8865
1484 1422062133 38.6586
1485 1422063354 38.3251
1486 1422064575 38.2864
1487 1422065795 38.4182
1488 1422067016 38.7733
1489 1422068237 38.4596
1490 1422069458 38.6421
1491 1422070678 39.2010
1492 1422071899 39.6949
1493 1422073120 38.9780
1494 1422074340 38.5548
1495 1422075561 38.9514
1496 1422076782 38.7421
1497 1422078002 38.9240
1498 1422079223 38.8637
1499 1422080444 38.7738
1500 1422081665 38.4891
1501 1422082885 38.0880
1502 1422084106 38.2783
1503 1422085327 38.6021
1504 1422086547 39.2137
1505 1422087768 38.8190
1506 1422088989 38.7232
1507 1422090209 38.3858
1508 1422091430 38.6692
1509 1422092651 38.5808
1510 1422093872 39.2474
1511 1422095092 39.1280
1512 1422096313 38.6081
1513 1422097534 38.4719
1514 1422098754 38.4643
1515 1422099975 38.3774
1516 1422101196 38.8354
1517 1422102416 38.6558
1518 1422103637 38.9368
1519 1422104858 39.0492
1520 1422106079 39.7389
1521 1422107299 39.7601
1522 1422108520 38.6725
1523 1422109741 39.1885
1524 1422110961 39.5690
1525 1422112182 38.9704
1526 1422113403 38.6868
1527 1422114624 38.6898
1528 1422115844 38.7961
1529 1422117065 38.7698
1530 1422118286 39.0396
1531 1422119506 39.0844
1532 1422120727 39.4645
1533 1422121948 38.9069
1534 1422123168 38.9929
1535 1422124389 39.2159
1536 1422125610 39.1248
1537 1422126831 38.9658
1538 1422128051 38.8374
1539 1422129272 38.6041
1540 1422130493 39.4581
1541 1422131713 39.3442
1542 1422132934 39.7548
1543 1422134155 39.0520
1544 1422135375 38.6887
1545 1422136596 38.8703
1546 1422137817 39.5088
1547 1422139038 39.5858
1548 1422140258 39.0153
1549 1422141479 38.9342
1550 1422142700 39.7208
1551 1422143920 39.4463
1552 1422145141 39.0913
1553 1422146362 38.7470
1554 1422147583 38.4717
1555 1422148803 39.2435
1556 1422150024 38.8083
1557 1422151245 39.0982
1558 1422152465 39.2820
1559 1422153686 39.0361
1560 1422154907 38.9558
1561 1422156127 38.6633
1562 1422157348 39.4188
1563 1422158569 39.1905
1564 1422159790 39.7752
1565 1422161010 39.0885
1566 1422162231 38.9293
1567 1422163452 39.4863
1568 1422164672 39.5977
1569 1422165893 39.5686
1570 1422167114 39.4060
1571 1422168334 39.6668
1572 1422169555 39.1647
1573 1422170776 38.9676
1574 1422171997 39.8065
1575 1422173217 39.6965
1576 1422174438 39.4970
1577 1422175659 39.7972
1578 1422176879 39.5045
1579 1422178100 39.0592
1580 1422179321 39.2480
1581 1422180541 39.2566
1582 1422181762 38.8197
1583 1422182983 39.2091
1584 1422184204 39.3731
1585 1422185424 39.5771
1586 1422186645 39.1869
1587 1422187866 39.3638
1588 1422189086 39.1550
1589 1422190307 39.0695
1590 1422191528 39.4570
1591 1422192749 39.3488
1592 1422193969 39.3717
1593 1422195190 38.9950
1594 1422196411 39.2860
1595 1422197631 38.9897
1596 1422198852 39.5771
1597 1422200073 40.3995
1598 1422201293 40.0958
1599 1422202514 43.7446
1600 1422203735 42.4156
1601 1422204956 39.5671
1602 1422206176 39.4935
1603 1422207397 39.5634
1604 1422208618 39.2703
1605 1422209838 39.2795
1606 1422211059 38.7435
1607 1422212280 38.7740
1608 1422213500 39.1545
1609 1422214721 39.0857
1610 1422215942 39.5317
1611 1422217163 39.1374
1612 1422218383 39.1836
1613 1422219604 38.7373
1614 1422220825 38.8626
1615 1422222045 38.7702
1616 1422223266 38.9179
1617 1422224487 38.8623
1618 1422225708 38.8711
1619 1422226928 39.2945
1620 1422228149 38.6846
1621 1422229370 38.9621
1622 1422230590 38.9825
1623 1422231811 38.9390
1624 1422233032 38.8004
1625 1422234252 38.6464
1626 1422235473 38.6535
1627 1422236694 38.5298
1628 1422237915 39.2930
1629 1422239135 39.2199
1630 1422240356 38.7687
1631 1422241577 38.3854
1632 1422242797 38.9010
1633 1422244018 38.7817
1634 1422245239 38.8653
1635 1422246459 39.4124
1636 1422247680 38.4115
1637 1422248901 38.4107
1638 1422250122 39.0516
1639 1422251342 39.0018
1640 1422252563 38.8411
1641 1422253784 38.6997
1642 1422255004 38.1296
1643 1422256225 38.4574
1644 1422257446 37.9345
1645 1422258666 38.4286
1646 1422259887 38.0478
1647 1422261108 38.4172
1648 1422262329 38.3237
1649 1422263549 38.2701
1650 1422264770 38.0576
1651 1422265991 38.3284
1652 1422267211 38.2971
1653 1422268432 38.5687
1654 1422269653 38.5125
1655 1422270874 38.1987
1656 1422272094 37.8282
1657 1422273315 38.8173
1658 1422274536 37.9714
1659 1422275756 38.1706
1660 1422276977 38.3710
1661 1422278198 38.5949
1662 1422279418 38.0487
1663 1422280639 38.0327
1664 1422281860 38.3686
1665 1422283081 38.1094
1666 1422284301 37.5880
1667 1422285522 38.1503
1668 1422286743 38.2172
1669 1422287963 37.9592
1670 1422289184 37.7717
1671 1422290405 38.2489
1672 1422291625 37.4730
1673 1422292846 37.4230
1674 1422294067 37.8214
1675 1422295288 37.8814
1676 1422296508 37.7939
1677 1422297729 38.0076
1678 1422298950 37.5460
1679 1422300170 37.3559
1680 1422301391 37.2503
1681 1422302612 37.1125
1682 1422303833 37.2986
1683 1422305053 37.5218
1684 1422306274 36.9685
1685 1422307495 37.0181
1686 1422308715 36.8889
1687 1422309936 36.9955
1688 1422311157 37.1406
1689 1422312377 36.6227
1690 1422313598 36.9135
1691 1422314819 36.9487
1692 1422316040 36.6726
1693 1422317260 36.9808
1694 1422318481 37.5525
1695 1422319702 37.1659
1696 1422320922 36.2888
1697 1422322143 36.3108
1698 1422323364 36.3159
1699 1422324584 36.0980
1700 1422325805 36.6256
1701 1422327026 36.2880
1702 1422328247 36.2226
1703 1422329467 36.2718
1704 1422330688 35.8189
1705 1422331909 36.2032
1706 1422333129 35.8715
1707 1422334350 35.9867
1708 1422335571 35.9272
1709 1422336791 36.1052
1710 1422338012 35.6507
1711 1422339233 35.3560
1712 1422340454 36.0618
1713 1422341674 35.9969
1714 1422342895 35.2381
1715 1422344116 35.5648
1716 1422345336 35.5729
1717 1422346557 35.2184
1718 1422347778 35.8126
1719 1422348999 36.0045
1720 1422350219 35.9696
1721 1422351440 35.2393
1722 1422352661 34.9697
1723 1422353881 34.9650
1724 1422355102 34.7019
1725 1422356323 34.7435
1726 1422357543 34.6683
1727 1422358764 34.7721
1728 1422359985 35.2502
1729 1422361206 34.9964
1730 1422362426 34.8709
1731 1422363647 34.7172
1732 1422364868 34.6122
1733 1422366088 34.5222
1734 1422367309 34.5695
1735 1422368530 34.1428
1736 1422369750 34.3674
1737 1422370971 33.5906
1738 1422372192 34.3973
1739 1422373413 33.7237
1740 1422374633 33.6580
1741 1422375854 34.2440
1742 1422377075 33.7977
1743 1422378295 34.0255
1744 1422379516 33.3353
1745 1422380737 33.3622
1746 1422381958 33.4342
1747 1422383178 33.3169
1748 1422384399 32.9988
1749 1422385620 33.0623
1750 1422386840 33.0371
1751 1422388061 32.4739
1752 1422389282 32.9530
1753 1422390502 33.3177
1754 1422391723 32.8703
1755 1422392944 32.4358
1756 1422394165 32.4352
1757 1422395385 32.6478
1758 1422396606 32.2924
1759 1422397827 32.2743
1760 1422399047 32.3922
1761 1422400268 33.1389
1762 1422401489 31.7694
1763 1422402709 32.1285
1764 1422403930 31.7664
1765 1422405151 31.6461
1766 1422406372 31.7553
1767 1422407592 31.7069
1768 1422408813 31.5154
1769 1422410034 31.3659
1770 1422411254 31.5425
1771 1422412475 31.4529
1772 1422413696 31.0897
1773 1422414916 30.9701
1774 1422416137 31.0879
1775 1422417358 30.9482
1776 1422418579 30.8843
1777 1422419799 30.8764
1778 1422421020 31.0053
1779 1422422241 30.4135
1780 1422423461 30.7607
1781 1422424682 30.5388
1782 1422425903 30.2743
1783 1422427124 30.3280
1784 1422428344 29.6693
1785 1422429565 29.6477
1786 1422430786 29.6653
1787 1422432006 29.7148
1788 1422433227 29.6644
1789 1422434448 29.6079
1790 1422435668 29.1921
1791 1422436889 29.3675
1792 1422438110 29.1188
1793 1422439331 29.3822
1794 1422440551 28.9558
1795 1422441772 29.0735
1796 1422442993 29.1000
1797 1422444213 29.1417
1798 1422445434 28.8674
1799 1422446655 28.6312
1800 1422447875 28.4797
1801 1422449096 28.5726
1802 1422450317 27.8800
1803 1422451538 28.2435
1804 1422452758 27.8990
1805 1422453979 27.9869
1806 1422455200 27.6644
1807 1422456420 27.7500
1808 1422457641 27.7788
1809 1422458862 27.5184
1810 1422460083 27.6639
1811 1422461303 27.1776
1812 1422462524 27.0032
1813 1422463745 26.9719
1814 1422464965 26.6258
1815 1422466186 26.4191
1816 1422467407 26.5690
1817 1422468627 26.7960
1818 1422469848 26.5069
1819 1422471069 26.0841
1820 1422472290 26.5475
1821 1422473510 26.1623
1822 1422474731 25.6484
1823 1422475952 25.8077
1824 1422477172 25.9106
1825 1422478393 25.8117
1826 1422479614 25.5210
1827 1422480834 25.4533
1828 1422482055 25.6543
1829 1422483276 25.4517
1830 1422484497 25.5944
1831 1422485717 25.0989
1832 1422486938 24.6513
1833 1422488159 24.7861
1834 1422489379 24.7510
1835 1422490600 24.8072
1836 1422491821 24.2424
1837 1422493041 24.3824
1838 1422494262 24.6359
1839 1422495483 24.2093
1840 1422496704 23.9446
1841 1422497924 23.6989
1842 1422499145 23.7834
1843 1422500366 23.7408
1844 1422501586 23.2171
1845 1422502807 22.7421
1846 1422504028 23.2358
1847 1422505249 23.4091
1848 1422506469 23.0594
1849 1422507690 22.8219
1850 1422508911 22.9550
1851 1422510131 22.6971
1852 1422511352 22.3566
1853 1422512573 22.5520
1854 1422513793 22.5307
1855 1422515014 22.2249
1856 1422516235 22.4138
1857 1422517456 22.2767
1858 1422518676 22.0710
1859 1422519897 21.8364
1860 1422521118 21.7421
1861 1422522338 21.7758
1862 1422523559 21.4283
1863 1422524780 21.6950
1864 1422526000 21.7501
1865 1422527221 21.2073
1866 1422528442 21.0020
1867 1422529663 20.8403
1868 1422530883 20.9100
1869 1422532104 20.6582
1870 1422533325 20.5661
1871 1422534545 20.2392
1872 1422535766 20.7693
1873 1422536987 20.5127
1874 1422538208 20.2839
1875 1422539428 20.1408
1876 1422540649 20.1439
1877 1422541870 20.0792
1878 1422543090 19.9044
1879 1422544311 19.5747
1880 1422545532 19.3814
1881 1422546752 19.3855
1882 1422547973 19.3426
1883 1422549194 19.2063
1884 1422550415 19.3645
1885 1422551635 19.2416
1886 1422552856 18.9406
1887 1422554077 18.7572
1888 1422555297 18.4208
1889 1422556518 18.4397
1890 1422557739 18.1881
1891 1422558959 18.3075
1892 1422560180 18.2995
1893 1422561401 18.1338
1894 1422562622 18.2081
1895 1422563842 17.7788
1896 1422565063 17.4981
1897 1422566284 17.7563
1898 1422567504 17.6510
1899 1422568725 17.6529
1900 1422569946 17.3025
1901 1422571166 17.1445
1902 1422572387 17.1412
1903 1422573608 17.0411
1904 1422574829 17.1063
1905 1422576049 16.8311
1906 1422577270 16.5819
1907 1422578491 16.4502
1908 1422579711 16.2380
1909 1422580932 16.5598
1910 1422582153 16.3426
1911 1422583374 16.2935
1912 1422584594 16.1006
1913 1422585815 15.9310
1914 1422587036 15.7846
1915 1422588256 15.9647
1916 1422589477 15.7437
1917 1422590698 15.5129
1918 1422591918 15.5686
1919 1422593139 15.3163
1920 1422594360 15.3555
1921 1422595581 15.1795
1922 1422596801 15.0146
1923 1422598022 15.1699
1924 1422599243 14.9452
1925 1422600463 14.6890
1926 1422601684 14.9720
1927 1422602905 14.7353
1928 1422604125 14.4374
1929 1422605346 14.3293
1930 1422606567 14.4902
1931 1422607788 14.1930
1932 1422609008 14.1094
1933 1422610229 14.0978
1934 1422611450 13.9031
1935 1422612670 14.0281
1936 1422613891 13.7761
1937 1422615112 13.6901
1938 1422616333 13.6682
1939 1422617553 13.4706
1940 1422618774 13.3920
1941 1422619995 13.3707
1942 1422621215 13.2655
1943 1422622436 13.0236
1944 1422623657 13.0667
1945 1422624877 13.0663
1946 1422626098 12.9345
1947 1422627319 12.8013
1948 1422628540 12.7702
1949 1422629760 12.6598
1950 1422630981 12.7065
1951 1422632202 12.5109
1952 1422633422 12.4274
1953 1422634643 12.4085
1954 1422635864 12.1686
1955 1422637084 12.0457
1956 1422638305 12.2309
1957 1422639526 11.9457
1958 1422640747 11.9986
1959 1422641967 11.9945
1960 1422643188 11.7017
1961 1422644409 11.5326
1962 1422645629 11.6223
1963 1422646850 11.5195
1964 1422648071 11.5434
1965 1422649291 11.5409
1966 1422650512 11.4376
1967 1422651733 11.3647
1968 1422652954 11.2295
1969 1422654174 11.1490
1970 1422655395 11.0462
1971 1422656616 10.8984
1972 1422657836 10.8719
1973 1422659057 10.7778
1974 1422660278 10.7641
1975 1422661499 10.5759
1976 1422662719 10.5620
1977 1422663940 10.4728
1978 1422665161 10.5662
1979 1422666381 10.6620
1980 1422667602 10.3521
1981 1422668823 10.3959
1982 1422670043 10.3784
1983 1422671264 10.1653
1984 1422672485 10.1885
1985 1422673706 10.0720
1986 1422674926 10.0074
1987 1422676147 10.0975
1988 1422677368 9.9632
1989 1422678588 9.8707
1990 1422679809 9.8296
1991 1422681030 9.6301
1992 1422682250 9.7233
1993 1422683471 9.6429
1994 1422684692 9.5557
1995 1422685913 9.4818
1996 1422687133 9.4705
1997 1422688354 9.3810
1998 1422689575 9.3295
1999 1422690795 9.3139
2000 1422692016 9.3526
2001 1422693237 9.2864
2002 1422694458 9.0337
2003 1422695678 9.1541
2004 1422696899 9.1728
2005 1422698120 9.1864
2006 1422699340 9.1961
2007 1422700561 9.3289
2008 1422701782 9.1707
2009 1422703002 9.0684
2010 1422704223 8.8965
2011 1422705444 8.8371
2012 1422706665 8.7157
2013 1422707885 8.6896
2014 1422709106 8.7434
2015 1422710327 8.6060
2016 1422711547 8.6322
2017 1422712768 8.5409
2018 1422713989 8.8295
2019 1422715209 8.6356
2020 1422716430 8.6635
2021 1422717651 8.4794
2022 1422718872 8.3372
2023 1422720092 8.4017
2024 1422721313 8.5091
2025 1422722534 8.4543
2026 1422723754 8.4561
2027 1422724975 8.4111
2028 1422726196 8.3599
2029 1422727416 8.2173
2030 1422728637 8.3032
2031 1422729858 8.3066
2032 1422731079 8.2245
2033 1422732299 8.3071
2034 1422733520 8.1407
2035 1422734741 8.2288
2036 1422735961 8.2736
2037 1422737182 8.1388
2038 1422738403 8.2168
2039 1422739624 8.1838
2040 1422740844 8.1702
2041 1422742065 8.2825
2042 1422743286 8.2504
2043 1422744506 8.0726
2044 1422745727 8.0889
2045 1422746948 8.1609
2046 1422748168 8.2237
2047 1422749389 8.5516
