# File: 20-06-07T200313.ast
# NOTEA     = None Attached.  RTLSDR Dongle Test
# NOTEB     = Spectral Integration
# OBSERVER  = Science Aficionado
# DEVICE    = rtl=0,bias=1
# DATADIR   = ../data/
# SITE      = None Attached.  RTLSDR Dongle Test
# CITY      = Seattle
# REGION    = Washington
# COUNTRY   = US
# TELTYPE   = UW CSE 490W Dish
# FRAME     = TOPO
# GAIN1     = 49.0
# GAIN2     = 11.0
# GAIN3     = 11.0
# GAIN4     = 0.0
# Count     = 2500
# CenterFreq= 1421500000.0
# Bandwidth = 2500000.0
# Duration  = 41.940399
# DeltaX    = 5859.375
# TSYS      = 200.0
# TRX       = 100.0
# TRMS      = 2.0
# TINT      = 1.0
# KPERC     = 100.0
# GAINFACT  = 1.0
# BUNIT     = Counts
# NCHAN     = 2048
# NSPEC     = 1
# NTIME     = 0
# NSAMPLES  = 0
# EPEAK     = 4.10875183718
# ERMS      = 0.995973393526
# EMJD      = 58568.808999981004 
# REFCHAN   = 1024.0
# REFSAMPL  = 256.0
# NAVE      = 50
# NMEDIAN   = 1024
# Fft_rate  = 5000
# UTC       = 2020-06-07 20:03:13.514262
# SECONDS   =       0.0000000000 
# LST       = 09:19:10.430
# AZ        = 180.0
# EL        = 90.0
# TELLON    = -57:41:09.900
# TELLAT    = +47:39:13.800
# RA        = 09:16:28.070
# DEC       = +47:49:19.200
# GALLON    = 171:27:51.40
# GALLAT    = +43:44:06.10
# ALT_SUN   = +34:26:43.7
# AZ_SUN    = +266:57:26.0
# ETAA      = 0.8
# ETAB      = 0.99
# POLANGLE  = 0.0
# TELSIZEAM = 1.0
# TELSIZEBM = 1.0
# AST_VERS  = 05.01
0000 1420250610 7.6798
0001 1420251831 7.5530
0002 1420253051 7.5326
0003 1420254272 7.5351
0004 1420255493 7.6123
0005 1420256713 7.5647
0006 1420257934 7.5140
0007 1420259155 7.5067
0008 1420260375 7.5712
0009 1420261596 7.6449
0010 1420262817 7.5956
0011 1420264038 7.6256
0012 1420265258 7.6708
0013 1420266479 7.7318
0014 1420267700 7.6278
0015 1420268920 7.6754
0016 1420270141 7.6735
0017 1420271362 7.6221
0018 1420272583 7.6859
0019 1420273803 7.6910
0020 1420275024 7.8238
0021 1420276245 7.8097
0022 1420277465 7.7781
0023 1420278686 7.8668
0024 1420279907 7.9019
0025 1420281127 7.7319
0026 1420282348 7.8782
0027 1420283569 7.8691
0028 1420284790 7.9706
0029 1420286010 7.9734
0030 1420287231 7.9498
0031 1420288452 8.0653
0032 1420289672 8.0275
0033 1420290893 8.0815
0034 1420292114 8.2227
0035 1420293334 8.1213
0036 1420294555 8.2437
0037 1420295776 8.2898
0038 1420296997 8.3151
0039 1420298217 8.3508
0040 1420299438 8.6018
0041 1420300659 8.7728
0042 1420301879 8.5061
0043 1420303100 8.4440
0044 1420304321 8.5071
0045 1420305541 8.5842
0046 1420306762 8.6338
0047 1420307983 8.6292
0048 1420309204 8.7014
0049 1420310424 8.6213
0050 1420311645 8.5480
0051 1420312866 8.8381
0052 1420314086 8.8583
0053 1420315307 8.8285
0054 1420316528 8.8485
0055 1420317749 9.0743
0056 1420318969 9.1326
0057 1420320190 9.1889
0058 1420321411 9.1444
0059 1420322631 9.1387
0060 1420323852 9.2004
0061 1420325073 9.2880
0062 1420326293 9.4069
0063 1420327514 9.5716
0064 1420328735 9.6042
0065 1420329956 9.4752
0066 1420331176 9.3926
0067 1420332397 9.5924
0068 1420333618 9.5557
0069 1420334838 9.6384
0070 1420336059 9.8016
0071 1420337280 9.8168
0072 1420338500 9.9563
0073 1420339721 9.8760
0074 1420340942 9.9011
0075 1420342163 9.8993
0076 1420343383 10.0496
0077 1420344604 10.0932
0078 1420345825 10.1494
0079 1420347045 10.2379
0080 1420348266 10.2610
0081 1420349487 10.5156
0082 1420350708 10.3792
0083 1420351928 10.2386
0084 1420353149 10.4232
0085 1420354370 10.3557
0086 1420355590 10.6250
0087 1420356811 10.7428
0088 1420358032 10.7564
0089 1420359252 10.8263
0090 1420360473 10.7384
0091 1420361694 10.9565
0092 1420362915 10.8700
0093 1420364135 11.0953
0094 1420365356 11.1349
0095 1420366577 11.0720
0096 1420367797 11.3175
0097 1420369018 11.2161
0098 1420370239 11.3572
0099 1420371459 11.4055
0100 1420372680 11.4333
0101 1420373901 11.4534
0102 1420375122 11.5292
0103 1420376342 11.6988
0104 1420377563 11.7733
0105 1420378784 11.7968
0106 1420380004 11.8841
0107 1420381225 12.0621
0108 1420382446 12.2667
0109 1420383666 12.2860
0110 1420384887 12.3322
0111 1420386108 12.4947
0112 1420387329 12.1009
0113 1420388549 12.2597
0114 1420389770 12.4528
0115 1420390991 12.5325
0116 1420392211 12.7143
0117 1420393432 12.7544
0118 1420394653 12.7247
0119 1420395874 12.6768
0120 1420397094 13.1210
0121 1420398315 13.0078
0122 1420399536 13.1615
0123 1420400756 13.2245
0124 1420401977 13.5459
0125 1420403198 13.4567
0126 1420404418 13.5000
0127 1420405639 13.7332
0128 1420406860 13.5965
0129 1420408081 13.7582
0130 1420409301 13.7640
0131 1420410522 14.0059
0132 1420411743 13.9167
0133 1420412963 14.0497
0134 1420414184 14.1544
0135 1420415405 14.4239
0136 1420416625 14.7541
0137 1420417846 14.4627
0138 1420419067 14.2681
0139 1420420288 14.5085
0140 1420421508 14.6382
0141 1420422729 14.6545
0142 1420423950 14.7268
0143 1420425170 15.0512
0144 1420426391 14.7938
0145 1420427612 15.0341
0146 1420428833 15.2816
0147 1420430053 15.2218
0148 1420431274 15.1750
0149 1420432495 15.3956
0150 1420433715 15.5155
0151 1420434936 15.7044
0152 1420436157 15.6556
0153 1420437377 15.8595
0154 1420438598 15.7482
0155 1420439819 15.7731
0156 1420441040 16.0480
0157 1420442260 16.1799
0158 1420443481 16.4703
0159 1420444702 16.6834
0160 1420445922 16.3050
0161 1420447143 16.6999
0162 1420448364 16.5421
0163 1420449584 16.5422
0164 1420450805 16.9823
0165 1420452026 17.0864
0166 1420453247 17.0258
0167 1420454467 17.2129
0168 1420455688 17.2881
0169 1420456909 17.2094
0170 1420458129 17.2050
0171 1420459350 17.4568
0172 1420460571 17.5306
0173 1420461791 17.8106
0174 1420463012 17.7376
0175 1420464233 17.9407
0176 1420465454 17.9094
0177 1420466674 17.8463
0178 1420467895 18.0707
0179 1420469116 17.9742
0180 1420470336 18.3555
0181 1420471557 18.3262
0182 1420472778 18.4476
0183 1420473999 18.6828
0184 1420475219 18.6667
0185 1420476440 18.8361
0186 1420477661 18.8039
0187 1420478881 18.7180
0188 1420480102 18.9619
0189 1420481323 19.2021
0190 1420482543 19.0354
0191 1420483764 19.2127
0192 1420484985 19.5825
0193 1420486206 19.4151
0194 1420487426 19.5480
0195 1420488647 20.2475
0196 1420489868 20.0324
0197 1420491088 19.6967
0198 1420492309 19.9609
0199 1420493530 20.2984
0200 1420494750 20.1144
0201 1420495971 20.6380
0202 1420497192 20.5098
0203 1420498413 21.3345
0204 1420499633 21.9487
0205 1420500854 20.8821
0206 1420502075 20.8074
0207 1420503295 20.9463
0208 1420504516 21.2716
0209 1420505737 21.2378
0210 1420506958 21.2350
0211 1420508178 21.5314
0212 1420509399 21.5713
0213 1420510620 21.4263
0214 1420511840 21.7819
0215 1420513061 21.8206
0216 1420514282 21.6397
0217 1420515502 22.0106
0218 1420516723 22.1869
0219 1420517944 22.0902
0220 1420519165 22.2010
0221 1420520385 22.1682
0222 1420521606 22.6305
0223 1420522827 22.5385
0224 1420524047 22.7180
0225 1420525268 22.5325
0226 1420526489 22.6440
0227 1420527709 23.1924
0228 1420528930 23.0706
0229 1420530151 23.4232
0230 1420531372 23.5393
0231 1420532592 22.9602
0232 1420533813 23.2382
0233 1420535034 23.2896
0234 1420536254 23.4983
0235 1420537475 23.3422
0236 1420538696 23.6788
0237 1420539916 23.8920
0238 1420541137 23.9539
0239 1420542358 24.0839
0240 1420543579 24.0196
0241 1420544799 23.8939
0242 1420546020 23.8887
0243 1420547241 23.6253
0244 1420548461 24.2467
0245 1420549682 24.5047
0246 1420550903 24.6653
0247 1420552124 24.6473
0248 1420553344 24.5705
0249 1420554565 24.7467
0250 1420555786 25.0101
0251 1420557006 25.0744
0252 1420558227 25.0338
0253 1420559448 25.0065
0254 1420560668 25.4094
0255 1420561889 25.1015
0256 1420563110 25.2148
0257 1420564331 25.3601
0258 1420565551 25.8319
0259 1420566772 25.7781
0260 1420567993 25.5769
0261 1420569213 25.7216
0262 1420570434 26.1991
0263 1420571655 26.0811
0264 1420572875 26.1677
0265 1420574096 26.3824
0266 1420575317 26.4755
0267 1420576538 26.5945
0268 1420577758 26.3314
0269 1420578979 26.4548
0270 1420580200 26.3908
0271 1420581420 26.7578
0272 1420582641 26.6438
0273 1420583862 26.7453
0274 1420585083 26.7193
0275 1420586303 26.9174
0276 1420587524 27.4287
0277 1420588745 27.5161
0278 1420589965 27.6603
0279 1420591186 27.3731
0280 1420592407 27.3729
0281 1420593627 27.4506
0282 1420594848 28.0292
0283 1420596069 27.9752
0284 1420597290 27.7460
0285 1420598510 27.9222
0286 1420599731 28.2786
0287 1420600952 28.1197
0288 1420602172 28.3467
0289 1420603393 28.5695
0290 1420604614 28.6136
0291 1420605834 28.0259
0292 1420607055 28.3674
0293 1420608276 28.3873
0294 1420609497 27.9904
0295 1420610717 28.9943
0296 1420611938 28.3917
0297 1420613159 28.9816
0298 1420614379 29.2722
0299 1420615600 29.0691
0300 1420616821 29.0089
0301 1420618041 29.3638
0302 1420619262 29.3295
0303 1420620483 28.9843
0304 1420621704 29.1558
0305 1420622924 29.4380
0306 1420624145 29.1754
0307 1420625366 29.5766
0308 1420626586 29.9300
0309 1420627807 29.3535
0310 1420629028 29.7326
0311 1420630249 29.5076
0312 1420631469 29.8278
0313 1420632690 29.8726
0314 1420633911 30.5990
0315 1420635131 32.4267
0316 1420636352 29.8789
0317 1420637573 29.9890
0318 1420638793 30.2849
0319 1420640014 29.9043
0320 1420641235 30.3211
0321 1420642456 30.2817
0322 1420643676 30.4883
0323 1420644897 30.3168
0324 1420646118 30.2085
0325 1420647338 30.6988
0326 1420648559 31.0214
0327 1420649780 30.6350
0328 1420651000 30.7185
0329 1420652221 30.6055
0330 1420653442 30.6387
0331 1420654663 30.7963
0332 1420655883 31.1054
0333 1420657104 31.0865
0334 1420658325 31.2436
0335 1420659545 31.1706
0336 1420660766 31.4706
0337 1420661987 31.5573
0338 1420663208 31.4303
0339 1420664428 31.3471
0340 1420665649 31.5205
0341 1420666870 32.0129
0342 1420668090 32.0814
0343 1420669311 31.6364
0344 1420670532 31.4083
0345 1420671752 31.7215
0346 1420672973 32.0166
0347 1420674194 31.5406
0348 1420675415 31.8432
0349 1420676635 31.9867
0350 1420677856 32.2707
0351 1420679077 31.8511
0352 1420680297 32.1536
0353 1420681518 31.7221
0354 1420682739 31.4902
0355 1420683959 32.2230
0356 1420685180 32.5901
0357 1420686401 32.2983
0358 1420687622 32.4568
0359 1420688842 32.1267
0360 1420690063 32.2497
0361 1420691284 33.0055
0362 1420692504 32.7917
0363 1420693725 32.6370
0364 1420694946 32.7348
0365 1420696166 32.8545
0366 1420697387 32.7399
0367 1420698608 32.7318
0368 1420699829 32.5218
0369 1420701049 32.8857
0370 1420702270 32.8405
0371 1420703491 32.6003
0372 1420704711 32.8106
0373 1420705932 32.8888
0374 1420707153 33.1257
0375 1420708374 33.2740
0376 1420709594 32.3228
0377 1420710815 32.8063
0378 1420712036 33.2123
0379 1420713256 33.4232
0380 1420714477 33.1959
0381 1420715698 32.9170
0382 1420716918 33.1043
0383 1420718139 33.2284
0384 1420719360 33.6487
0385 1420720581 33.6061
0386 1420721801 33.5323
0387 1420723022 33.1388
0388 1420724243 33.7215
0389 1420725463 33.3418
0390 1420726684 33.5779
0391 1420727905 33.1038
0392 1420729125 33.1765
0393 1420730346 33.6688
0394 1420731567 32.9526
0395 1420732788 33.7485
0396 1420734008 33.9679
0397 1420735229 33.5781
0398 1420736450 33.4367
0399 1420737670 33.5628
0400 1420738891 33.7991
0401 1420740112 33.6002
0402 1420741333 33.3082
0403 1420742553 33.5206
0404 1420743774 33.9791
0405 1420744995 33.9717
0406 1420746215 33.7661
0407 1420747436 33.6909
0408 1420748657 34.0047
0409 1420749877 33.5225
0410 1420751098 33.9447
0411 1420752319 34.2162
0412 1420753540 33.8299
0413 1420754760 33.9972
0414 1420755981 34.3439
0415 1420757202 34.2862
0416 1420758422 33.9705
0417 1420759643 33.6883
0418 1420760864 34.7412
0419 1420762084 34.2928
0420 1420763305 34.4241
0421 1420764526 34.2664
0422 1420765747 34.7356
0423 1420766967 34.6794
0424 1420768188 34.6471
0425 1420769409 34.7554
0426 1420770629 34.7370
0427 1420771850 34.5409
0428 1420773071 34.1968
0429 1420774291 34.1380
0430 1420775512 34.1400
0431 1420776733 34.1182
0432 1420777954 34.1924
0433 1420779174 34.3151
0434 1420780395 34.4227
0435 1420781616 34.0206
0436 1420782836 34.4700
0437 1420784057 34.9398
0438 1420785278 35.0388
0439 1420786499 34.3831
0440 1420787719 34.8607
0441 1420788940 34.5373
0442 1420790161 34.3606
0443 1420791381 34.6399
0444 1420792602 34.3481
0445 1420793823 34.1101
0446 1420795043 34.5479
0447 1420796264 35.0202
0448 1420797485 34.2082
0449 1420798706 34.7559
0450 1420799926 36.9951
0451 1420801147 36.3678
0452 1420802368 35.0073
0453 1420803588 34.9880
0454 1420804809 41.7121
0455 1420806030 39.4936
0456 1420807250 34.6511
0457 1420808471 35.2279
0458 1420809692 34.9030
0459 1420810913 34.5429
0460 1420812133 34.4115
0461 1420813354 34.1129
0462 1420814575 34.1697
0463 1420815795 34.2473
0464 1420817016 34.5723
0465 1420818237 34.2519
0466 1420819458 34.4009
0467 1420820678 34.8393
0468 1420821899 34.4195
0469 1420823120 34.6773
0470 1420824340 34.7555
0471 1420825561 34.8675
0472 1420826782 34.9964
0473 1420828002 34.8064
0474 1420829223 34.3159
0475 1420830444 34.3549
0476 1420831665 34.8699
0477 1420832885 34.4919
0478 1420834106 34.3805
0479 1420835327 34.0962
0480 1420836547 34.6730
0481 1420837768 34.6487
0482 1420838989 34.3804
0483 1420840209 34.3558
0484 1420841430 34.7762
0485 1420842651 34.8173
0486 1420843872 33.9716
0487 1420845092 34.8655
0488 1420846313 35.1594
0489 1420847534 34.9866
0490 1420848754 35.3211
0491 1420849975 34.7540
0492 1420851196 34.5633
0493 1420852416 35.0381
0494 1420853637 34.7714
0495 1420854858 34.6462
0496 1420856079 34.3506
0497 1420857299 34.2780
0498 1420858520 34.7083
0499 1420859741 34.7360
0500 1420860961 34.2981
0501 1420862182 34.7012
0502 1420863403 34.6474
0503 1420864624 34.6261
0504 1420865844 34.3795
0505 1420867065 34.3536
0506 1420868286 34.5144
0507 1420869506 34.4114
0508 1420870727 34.2820
0509 1420871948 34.5329
0510 1420873168 34.4641
0511 1420874389 34.2795
0512 1420875610 34.5335
0513 1420876831 34.3535
0514 1420878051 34.1722
0515 1420879272 34.2647
0516 1420880493 34.4690
0517 1420881713 35.0555
0518 1420882934 34.4538
0519 1420884155 34.3643
0520 1420885375 34.8049
0521 1420886596 33.9677
0522 1420887817 34.3933
0523 1420889038 34.3092
0524 1420890258 34.8500
0525 1420891479 34.3227
0526 1420892700 34.4254
0527 1420893920 33.8944
0528 1420895141 34.2926
0529 1420896362 34.0308
0530 1420897583 34.3753
0531 1420898803 34.5937
0532 1420900024 34.6387
0533 1420901245 34.8747
0534 1420902465 34.2845
0535 1420903686 33.9386
0536 1420904907 34.6693
0537 1420906127 34.6630
0538 1420907348 34.4396
0539 1420908569 34.1851
0540 1420909790 34.5697
0541 1420911010 34.7460
0542 1420912231 34.2428
0543 1420913452 34.3857
0544 1420914672 34.2084
0545 1420915893 34.4176
0546 1420917114 34.6312
0547 1420918334 34.3684
0548 1420919555 34.7261
0549 1420920776 34.5110
0550 1420921997 34.0632
0551 1420923217 34.1274
0552 1420924438 34.2381
0553 1420925659 34.1662
0554 1420926879 33.8584
0555 1420928100 34.0271
0556 1420929321 34.1740
0557 1420930541 34.0597
0558 1420931762 33.7676
0559 1420932983 34.5898
0560 1420934204 34.1057
0561 1420935424 33.9175
0562 1420936645 34.6223
0563 1420937866 34.1107
0564 1420939086 34.2862
0565 1420940307 34.0068
0566 1420941528 34.1865
0567 1420942749 33.9992
0568 1420943969 34.1807
0569 1420945190 34.2063
0570 1420946411 33.7203
0571 1420947631 34.6521
0572 1420948852 34.2599
0573 1420950073 34.3177
0574 1420951293 34.1439
0575 1420952514 34.6451
0576 1420953735 34.3131
0577 1420954956 34.3718
0578 1420956176 33.9790
0579 1420957397 33.9113
0580 1420958618 33.8475
0581 1420959838 34.2629
0582 1420961059 34.3967
0583 1420962280 34.0699
0584 1420963500 34.1831
0585 1420964721 34.3159
0586 1420965942 34.4738
0587 1420967163 34.0769
0588 1420968383 34.3057
0589 1420969604 34.3606
0590 1420970825 34.3364
0591 1420972045 34.4992
0592 1420973266 33.9391
0593 1420974487 34.0193
0594 1420975708 34.2136
0595 1420976928 34.1455
0596 1420978149 33.9721
0597 1420979370 34.1850
0598 1420980590 33.9337
0599 1420981811 34.1493
0600 1420983032 34.2433
0601 1420984252 34.4098
0602 1420985473 34.5788
0603 1420986694 34.3282
0604 1420987915 34.0975
0605 1420989135 34.2240
0606 1420990356 33.9498
0607 1420991577 34.1922
0608 1420992797 34.6832
0609 1420994018 33.8185
0610 1420995239 34.2949
0611 1420996459 34.8466
0612 1420997680 34.1359
0613 1420998901 34.1189
0614 1421000122 34.0231
0615 1421001342 33.9233
0616 1421002563 33.8970
0617 1421003784 33.8951
0618 1421005004 34.3427
0619 1421006225 34.2677
0620 1421007446 34.4885
0621 1421008666 34.4039
0622 1421009887 34.0829
0623 1421011108 33.8858
0624 1421012329 34.1915
0625 1421013549 33.8062
0626 1421014770 33.1831
0627 1421015991 34.1982
0628 1421017211 34.3636
0629 1421018432 34.4425
0630 1421019653 34.0224
0631 1421020874 34.1444
0632 1421022094 34.4122
0633 1421023315 34.5404
0634 1421024536 33.9655
0635 1421025756 33.6524
0636 1421026977 33.8929
0637 1421028198 34.0234
0638 1421029418 34.2998
0639 1421030639 33.7750
0640 1421031860 33.8504
0641 1421033081 33.9822
0642 1421034301 34.2519
0643 1421035522 34.0744
0644 1421036743 33.7638
0645 1421037963 33.9068
0646 1421039184 33.8610
0647 1421040405 33.9039
0648 1421041625 33.8299
0649 1421042846 34.2266
0650 1421044067 34.1389
0651 1421045288 34.3808
0652 1421046508 34.1593
0653 1421047729 33.9425
0654 1421048950 34.2547
0655 1421050170 34.2475
0656 1421051391 34.0324
0657 1421052612 34.2893
0658 1421053833 34.4377
0659 1421055053 34.2985
0660 1421056274 34.6522
0661 1421057495 34.2202
0662 1421058715 34.3290
0663 1421059936 33.7387
0664 1421061157 33.8847
0665 1421062377 33.6877
0666 1421063598 33.7308
0667 1421064819 34.3135
0668 1421066040 34.0792
0669 1421067260 34.4248
0670 1421068481 34.2005
0671 1421069702 34.4102
0672 1421070922 34.3384
0673 1421072143 33.9918
0674 1421073364 34.6170
0675 1421074584 34.2947
0676 1421075805 34.3351
0677 1421077026 34.4048
0678 1421078247 34.9114
0679 1421079467 34.3817
0680 1421080688 33.9258
0681 1421081909 34.4198
0682 1421083129 34.4051
0683 1421084350 34.4928
0684 1421085571 34.9537
0685 1421086791 34.1474
0686 1421088012 34.0440
0687 1421089233 34.4923
0688 1421090454 34.0866
0689 1421091674 34.2073
0690 1421092895 34.5865
0691 1421094116 34.1723
0692 1421095336 34.7367
0693 1421096557 34.7865
0694 1421097778 34.6223
0695 1421098999 34.4148
0696 1421100219 34.7274
0697 1421101440 34.7236
0698 1421102661 34.7379
0699 1421103881 34.3122
0700 1421105102 34.8431
0701 1421106323 34.7181
0702 1421107543 35.2203
0703 1421108764 34.9539
0704 1421109985 34.4039
0705 1421111206 34.4382
0706 1421112426 34.3271
0707 1421113647 34.7391
0708 1421114868 34.6229
0709 1421116088 35.2431
0710 1421117309 34.8728
0711 1421118530 34.5875
0712 1421119750 34.9487
0713 1421120971 35.0652
0714 1421122192 35.3347
0715 1421123413 35.1354
0716 1421124633 34.5637
0717 1421125854 35.1856
0718 1421127075 35.2338
0719 1421128295 35.1544
0720 1421129516 34.8027
0721 1421130737 34.9742
0722 1421131958 34.9998
0723 1421133178 34.9925
0724 1421134399 35.4684
0725 1421135620 35.2168
0726 1421136840 35.1919
0727 1421138061 34.9265
0728 1421139282 35.2300
0729 1421140502 35.4983
0730 1421141723 34.8896
0731 1421142944 35.2660
0732 1421144165 35.1907
0733 1421145385 35.6628
0734 1421146606 35.3582
0735 1421147827 35.2421
0736 1421149047 35.0945
0737 1421150268 35.5834
0738 1421151489 35.5682
0739 1421152709 36.1690
0740 1421153930 35.4154
0741 1421155151 35.6522
0742 1421156372 35.2586
0743 1421157592 35.4645
0744 1421158813 35.7353
0745 1421160034 35.6818
0746 1421161254 35.6916
0747 1421162475 35.4698
0748 1421163696 36.2987
0749 1421164916 35.5211
0750 1421166137 35.9287
0751 1421167358 36.1900
0752 1421168579 35.3186
0753 1421169799 35.8877
0754 1421171020 35.9457
0755 1421172241 36.3507
0756 1421173461 36.4328
0757 1421174682 35.5328
0758 1421175903 35.6014
0759 1421177124 35.6382
0760 1421178344 36.3640
0761 1421179565 35.9805
0762 1421180786 36.2414
0763 1421182006 35.7344
0764 1421183227 35.5037
0765 1421184448 36.4558
0766 1421185668 36.1598
0767 1421186889 35.9949
0768 1421188110 36.9222
0769 1421189331 36.3409
0770 1421190551 36.0603
0771 1421191772 35.5732
0772 1421192993 36.4905
0773 1421194213 36.6473
0774 1421195434 36.2318
0775 1421196655 36.2719
0776 1421197875 36.3185
0777 1421199096 36.5223
0778 1421200317 35.9629
0779 1421201538 36.9164
0780 1421202758 36.5669
0781 1421203979 36.9689
0782 1421205200 36.7219
0783 1421206420 36.5290
0784 1421207641 36.4612
0785 1421208862 36.7237
0786 1421210083 36.5743
0787 1421211303 36.5734
0788 1421212524 36.5573
0789 1421213745 37.4875
0790 1421214965 36.8977
0791 1421216186 36.8897
0792 1421217407 36.8166
0793 1421218627 36.6349
0794 1421219848 36.4482
0795 1421221069 37.3526
0796 1421222290 37.0033
0797 1421223510 36.3669
0798 1421224731 37.0787
0799 1421225952 37.1617
0800 1421227172 37.6171
0801 1421228393 37.3141
0802 1421229614 37.1944
0803 1421230834 37.9081
0804 1421232055 37.2139
0805 1421233276 37.7025
0806 1421234497 37.6063
0807 1421235717 37.2698
0808 1421236938 37.0555
0809 1421238159 36.9612
0810 1421239379 37.8319
0811 1421240600 37.1121
0812 1421241821 37.6114
0813 1421243041 37.7022
0814 1421244262 37.4738
0815 1421245483 37.5471
0816 1421246704 37.2317
0817 1421247924 37.6679
0818 1421249145 37.0134
0819 1421250366 37.2333
0820 1421251586 37.8483
0821 1421252807 37.9457
0822 1421254028 37.5872
0823 1421255249 37.8099
0824 1421256469 38.3463
0825 1421257690 38.2017
0826 1421258911 38.1185
0827 1421260131 37.9780
0828 1421261352 38.4465
0829 1421262573 38.3144
0830 1421263793 38.2904
0831 1421265014 37.9936
0832 1421266235 37.8680
0833 1421267456 38.1503
0834 1421268676 38.4178
0835 1421269897 37.5798
0836 1421271118 38.3944
0837 1421272338 38.4615
0838 1421273559 38.1354
0839 1421274780 38.6669
0840 1421276000 39.3055
0841 1421277221 38.4539
0842 1421278442 38.0580
0843 1421279663 38.7193
0844 1421280883 39.0209
0845 1421282104 38.9949
0846 1421283325 38.0204
0847 1421284545 38.6980
0848 1421285766 38.6807
0849 1421286987 38.5278
0850 1421288208 39.3388
0851 1421289428 39.1082
0852 1421290649 39.5637
0853 1421291870 38.6199
0854 1421293090 38.8765
0855 1421294311 39.1894
0856 1421295532 39.3195
0857 1421296752 38.6046
0858 1421297973 38.7800
0859 1421299194 39.8018
0860 1421300415 38.9418
0861 1421301635 38.9282
0862 1421302856 39.0403
0863 1421304077 39.0381
0864 1421305297 39.0499
0865 1421306518 39.2277
0866 1421307739 38.8783
0867 1421308959 39.4743
0868 1421310180 39.4993
0869 1421311401 39.6889
0870 1421312622 39.6469
0871 1421313842 39.3537
0872 1421315063 39.8582
0873 1421316284 39.7630
0874 1421317504 39.4082
0875 1421318725 39.2224
0876 1421319946 39.2855
0877 1421321166 39.7649
0878 1421322387 40.4230
0879 1421323608 39.6162
0880 1421324829 39.4179
0881 1421326049 39.2833
0882 1421327270 39.9150
0883 1421328491 39.9142
0884 1421329711 39.7363
0885 1421330932 39.9316
0886 1421332153 39.8201
0887 1421333374 40.2681
0888 1421334594 40.0559
0889 1421335815 39.3211
0890 1421337036 39.8944
0891 1421338256 40.4582
0892 1421339477 40.7206
0893 1421340698 40.5995
0894 1421341918 39.8283
0895 1421343139 39.6132
0896 1421344360 40.2401
0897 1421345581 40.5035
0898 1421346801 40.2015
0899 1421348022 40.7259
0900 1421349243 40.6308
0901 1421350463 40.3287
0902 1421351684 40.4629
0903 1421352905 40.3623
0904 1421354125 40.3585
0905 1421355346 40.1274
0906 1421356567 40.6057
0907 1421357788 40.4122
0908 1421359008 40.0580
0909 1421360229 40.5783
0910 1421361450 40.6469
0911 1421362670 40.8252
0912 1421363891 40.2017
0913 1421365112 40.7687
0914 1421366333 40.5671
0915 1421367553 41.0029
0916 1421368774 40.7738
0917 1421369995 40.9420
0918 1421371215 40.9328
0919 1421372436 41.0740
0920 1421373657 40.8908
0921 1421374877 41.2325
0922 1421376098 41.1390
0923 1421377319 40.9897
0924 1421378540 41.1082
0925 1421379760 41.4029
0926 1421380981 41.5995
0927 1421382202 41.5859
0928 1421383422 41.2698
0929 1421384643 41.3853
0930 1421385864 41.2698
0931 1421387084 41.3935
0932 1421388305 41.9497
0933 1421389526 41.1373
0934 1421390747 41.5661
0935 1421391967 41.0666
0936 1421393188 41.9928
0937 1421394409 41.6391
0938 1421395629 41.9690
0939 1421396850 41.3735
0940 1421398071 41.1776
0941 1421399291 41.5005
0942 1421400512 42.1954
0943 1421401733 41.6391
0944 1421402954 41.9024
0945 1421404174 41.9345
0946 1421405395 41.9918
0947 1421406616 41.7205
0948 1421407836 42.2045
0949 1421409057 42.2786
0950 1421410278 41.9328
0951 1421411499 42.0761
0952 1421412719 42.1575
0953 1421413940 41.7905
0954 1421415161 41.6974
0955 1421416381 41.5104
0956 1421417602 42.0739
0957 1421418823 41.9342
0958 1421420043 42.1638
0959 1421421264 42.1103
0960 1421422485 42.2460
0961 1421423706 42.2677
0962 1421424926 42.6225
0963 1421426147 41.8546
0964 1421427368 42.2964
0965 1421428588 42.3982
0966 1421429809 42.5259
0967 1421431030 42.1010
0968 1421432250 42.2602
0969 1421433471 42.1594
0970 1421434692 41.8365
0971 1421435913 42.1865
0972 1421437133 41.8305
0973 1421438354 42.5391
0974 1421439575 41.8484
0975 1421440795 42.5693
0976 1421442016 42.0863
0977 1421443237 42.2783
0978 1421444458 42.7711
0979 1421445678 42.3763
0980 1421446899 42.3672
0981 1421448120 42.6769
0982 1421449340 42.3826
0983 1421450561 42.6908
0984 1421451782 42.6761
0985 1421453002 42.8947
0986 1421454223 42.8243
0987 1421455444 43.1273
0988 1421456665 42.8305
0989 1421457885 42.7856
0990 1421459106 42.6011
0991 1421460327 42.9005
0992 1421461547 42.3047
0993 1421462768 42.9600
0994 1421463989 42.5152
0995 1421465209 42.5558
0996 1421466430 42.8040
0997 1421467651 42.9109
0998 1421468872 43.2817
0999 1421470092 42.8644
1000 1421471313 43.1545
1001 1421472534 43.1102
1002 1421473754 43.2702
1003 1421474975 43.4942
1004 1421476196 42.7772
1005 1421477416 42.9757
1006 1421478637 43.6241
1007 1421479858 42.7922
1008 1421481079 43.4747
1009 1421482299 44.2060
1010 1421483520 43.9565
1011 1421484741 43.5411
1012 1421485961 43.7493
1013 1421487182 43.7107
1014 1421488403 43.7496
1015 1421489624 45.0319
1016 1421490844 45.0030
1017 1421492065 45.0179
1018 1421493286 45.0222
1019 1421494506 45.3094
1020 1421495727 46.8950
1021 1421496948 47.4391
1022 1421498168 48.4885
1023 1421499389 49.0517
1024 1421500610 45.5672
1025 1421501831 48.8645
1026 1421503051 48.3173
1027 1421504272 46.2318
1028 1421505493 46.5379
1029 1421506713 45.5863
1030 1421507934 45.4784
1031 1421509155 44.5706
1032 1421510375 43.9493
1033 1421511596 43.8824
1034 1421512817 43.5991
1035 1421514038 44.1805
1036 1421515258 43.9053
1037 1421516479 43.5199
1038 1421517700 43.6481
1039 1421518920 43.5330
1040 1421520141 43.6568
1041 1421521362 43.4819
1042 1421522583 43.2395
1043 1421523803 43.5306
1044 1421525024 43.5210
1045 1421526245 43.3377
1046 1421527465 43.2885
1047 1421528686 43.2161
1048 1421529907 43.4311
1049 1421531127 42.9826
1050 1421532348 42.8838
1051 1421533569 42.9037
1052 1421534790 43.1214
1053 1421536010 42.7195
1054 1421537231 43.1318
1055 1421538452 42.6868
1056 1421539672 43.2802
1057 1421540893 42.9670
1058 1421542114 42.5492
1059 1421543334 42.7333
1060 1421544555 42.5119
1061 1421545776 42.5864
1062 1421546997 42.8643
1063 1421548217 42.7198
1064 1421549438 43.3682
1065 1421550659 42.9156
1066 1421551879 42.7832
1067 1421553100 42.5469
1068 1421554321 42.9395
1069 1421555541 42.4537
1070 1421556762 43.0306
1071 1421557983 43.3055
1072 1421559204 42.7376
1073 1421560424 42.4572
1074 1421561645 42.5377
1075 1421562866 42.3203
1076 1421564086 42.0752
1077 1421565307 42.5791
1078 1421566528 42.5605
1079 1421567749 42.3308
1080 1421568969 42.4825
1081 1421570190 42.2104
1082 1421571411 42.2331
1083 1421572631 42.1983
1084 1421573852 42.6229
1085 1421575073 42.7151
1086 1421576293 43.1398
1087 1421577514 42.2323
1088 1421578735 42.3454
1089 1421579956 42.4979
1090 1421581176 42.7131
1091 1421582397 42.1953
1092 1421583618 42.0604
1093 1421584838 42.2364
1094 1421586059 42.0509
1095 1421587280 41.9478
1096 1421588500 42.0663
1097 1421589721 41.9580
1098 1421590942 42.1955
1099 1421592163 41.9329
1100 1421593383 42.2562
1101 1421594604 41.7957
1102 1421595825 41.7917
1103 1421597045 42.3839
1104 1421598266 42.0505
1105 1421599487 42.1029
1106 1421600708 42.1782
1107 1421601928 42.2003
1108 1421603149 42.1133
1109 1421604370 41.8065
1110 1421605590 41.5935
1111 1421606811 41.6968
1112 1421608032 41.9570
1113 1421609252 41.7320
1114 1421610473 42.4910
1115 1421611694 43.1932
1116 1421612915 42.3136
1117 1421614135 41.5970
1118 1421615356 41.8331
1119 1421616577 41.8438
1120 1421617797 41.6089
1121 1421619018 41.8759
1122 1421620239 41.3471
1123 1421621459 41.3310
1124 1421622680 41.3047
1125 1421623901 41.6672
1126 1421625122 41.6043
1127 1421626342 41.5174
1128 1421627563 41.5989
1129 1421628784 40.6759
1130 1421630004 41.3841
1131 1421631225 41.1632
1132 1421632446 41.3929
1133 1421633666 40.9421
1134 1421634887 41.0608
1135 1421636108 41.0384
1136 1421637329 41.7448
1137 1421638549 40.9141
1138 1421639770 41.2525
1139 1421640991 40.6663
1140 1421642211 40.8598
1141 1421643432 41.2058
1142 1421644653 41.7173
1143 1421645874 41.0345
1144 1421647094 41.2412
1145 1421648315 41.5033
1146 1421649536 40.9055
1147 1421650756 41.1105
1148 1421651977 40.5018
1149 1421653198 40.6792
1150 1421654418 40.0919
1151 1421655639 41.1465
1152 1421656860 41.2956
1153 1421658081 41.2821
1154 1421659301 40.6924
1155 1421660522 40.7277
1156 1421661743 40.2467
1157 1421662963 40.1213
1158 1421664184 40.2797
1159 1421665405 40.1439
1160 1421666625 40.1301
1161 1421667846 40.7315
1162 1421669067 40.6284
1163 1421670288 40.0300
1164 1421671508 40.7002
1165 1421672729 40.5540
1166 1421673950 40.2366
1167 1421675170 40.2307
1168 1421676391 40.5175
1169 1421677612 40.4827
1170 1421678833 40.3651
1171 1421680053 40.4008
1172 1421681274 40.1800
1173 1421682495 39.7159
1174 1421683715 40.1050
1175 1421684936 39.9352
1176 1421686157 39.7885
1177 1421687377 39.6913
1178 1421688598 39.5647
1179 1421689819 39.3913
1180 1421691040 39.9892
1181 1421692260 39.7016
1182 1421693481 39.7577
1183 1421694702 39.9909
1184 1421695922 39.9579
1185 1421697143 40.0086
1186 1421698364 40.0533
1187 1421699584 39.3320
1188 1421700805 39.5035
1189 1421702026 40.0479
1190 1421703247 39.7283
1191 1421704467 39.3922
1192 1421705688 39.5658
1193 1421706909 39.4201
1194 1421708129 39.7049
1195 1421709350 38.9242
1196 1421710571 39.4961
1197 1421711791 39.4933
1198 1421713012 39.1819
1199 1421714233 39.6737
1200 1421715454 39.2512
1201 1421716674 39.9304
1202 1421717895 39.4197
1203 1421719116 39.2772
1204 1421720336 38.8809
1205 1421721557 39.5862
1206 1421722778 39.5340
1207 1421723999 38.8184
1208 1421725219 39.2395
1209 1421726440 38.8541
1210 1421727661 38.7407
1211 1421728881 38.5838
1212 1421730102 39.0916
1213 1421731323 38.9375
1214 1421732543 38.8456
1215 1421733764 39.0428
1216 1421734985 38.7054
1217 1421736206 38.6755
1218 1421737426 38.8320
1219 1421738647 38.5586
1220 1421739868 39.2761
1221 1421741088 38.5514
1222 1421742309 38.4961
1223 1421743530 38.6572
1224 1421744750 38.6185
1225 1421745971 38.5968
1226 1421747192 38.8507
1227 1421748413 38.4017
1228 1421749633 38.5514
1229 1421750854 38.7019
1230 1421752075 38.4526
1231 1421753295 38.7377
1232 1421754516 38.2424
1233 1421755737 38.3654
1234 1421756958 38.3758
1235 1421758178 38.6669
1236 1421759399 38.0648
1237 1421760620 37.7795
1238 1421761840 37.8859
1239 1421763061 38.1311
1240 1421764282 38.3740
1241 1421765502 38.3101
1242 1421766723 38.2285
1243 1421767944 38.3012
1244 1421769165 37.5217
1245 1421770385 37.9030
1246 1421771606 37.4134
1247 1421772827 37.3965
1248 1421774047 37.7824
1249 1421775268 38.0244
1250 1421776489 38.1509
1251 1421777709 37.6200
1252 1421778930 38.1210
1253 1421780151 37.7619
1254 1421781372 37.3774
1255 1421782592 37.7841
1256 1421783813 37.9295
1257 1421785034 37.6759
1258 1421786254 37.1435
1259 1421787475 37.8945
1260 1421788696 37.7554
1261 1421789916 37.8690
1262 1421791137 37.6363
1263 1421792358 37.6996
1264 1421793579 37.4611
1265 1421794799 37.6073
1266 1421796020 37.1818
1267 1421797241 37.0793
1268 1421798461 37.4247
1269 1421799682 37.2243
1270 1421800903 37.6641
1271 1421802124 37.4056
1272 1421803344 37.2491
1273 1421804565 37.1429
1274 1421805786 37.3218
1275 1421807006 40.8952
1276 1421808227 46.4295
1277 1421809448 37.9300
1278 1421810668 37.1539
1279 1421811889 36.9738
1280 1421813110 37.1265
1281 1421814331 37.0266
1282 1421815551 36.7988
1283 1421816772 36.8171
1284 1421817993 36.6683
1285 1421819213 37.0686
1286 1421820434 37.0595
1287 1421821655 37.1219
1288 1421822875 36.7499
1289 1421824096 36.7893
1290 1421825317 36.5261
1291 1421826538 36.9441
1292 1421827758 37.0143
1293 1421828979 36.3933
1294 1421830200 36.4217
1295 1421831420 36.3685
1296 1421832641 36.1600
1297 1421833862 36.8272
1298 1421835083 36.9907
1299 1421836303 36.5780
1300 1421837524 36.8438
1301 1421838745 36.7071
1302 1421839965 36.1881
1303 1421841186 36.3565
1304 1421842407 36.0847
1305 1421843627 36.2382
1306 1421844848 36.4370
1307 1421846069 36.4773
1308 1421847290 36.4789
1309 1421848510 36.1427
1310 1421849731 36.4390
1311 1421850952 36.1487
1312 1421852172 36.6035
1313 1421853393 36.6897
1314 1421854614 35.9723
1315 1421855834 36.2036
1316 1421857055 36.0187
1317 1421858276 36.5068
1318 1421859497 36.3428
1319 1421860717 36.0561
1320 1421861938 35.9358
1321 1421863159 36.2457
1322 1421864379 36.4473
1323 1421865600 36.5881
1324 1421866821 36.7710
1325 1421868041 37.4027
1326 1421869262 37.4298
1327 1421870483 37.7197
1328 1421871704 37.3905
1329 1421872924 36.3380
1330 1421874145 36.1917
1331 1421875366 36.3051
1332 1421876586 36.4266
1333 1421877807 35.8700
1334 1421879028 35.6577
1335 1421880249 35.7964
1336 1421881469 36.2009
1337 1421882690 35.9969
1338 1421883911 35.8532
1339 1421885131 36.4061
1340 1421886352 35.2675
1341 1421887573 36.0327
1342 1421888793 35.8583
1343 1421890014 36.4165
1344 1421891235 36.1478
1345 1421892456 36.1629
1346 1421893676 36.1686
1347 1421894897 35.8192
1348 1421896118 35.7673
1349 1421897338 35.6925
1350 1421898559 35.5372
1351 1421899780 35.4250
1352 1421901000 35.6682
1353 1421902221 35.8199
1354 1421903442 35.3896
1355 1421904663 35.4116
1356 1421905883 35.8052
1357 1421907104 35.6128
1358 1421908325 35.5045
1359 1421909545 35.5339
1360 1421910766 35.3567
1361 1421911987 35.2841
1362 1421913208 35.8726
1363 1421914428 35.8753
1364 1421915649 35.2691
1365 1421916870 35.4361
1366 1421918090 35.2422
1367 1421919311 35.5160
1368 1421920532 35.7830
1369 1421921752 35.6012
1370 1421922973 35.8537
1371 1421924194 35.6678
1372 1421925415 35.3778
1373 1421926635 35.2860
1374 1421927856 35.5769
1375 1421929077 35.9950
1376 1421930297 35.6522
1377 1421931518 35.3963
1378 1421932739 35.6538
1379 1421933959 35.5398
1380 1421935180 35.2467
1381 1421936401 35.6044
1382 1421937622 35.2759
1383 1421938842 35.2678
1384 1421940063 35.9145
1385 1421941284 35.6342
1386 1421942504 34.9390
1387 1421943725 34.8281
1388 1421944946 35.0663
1389 1421946166 35.6231
1390 1421947387 35.0667
1391 1421948608 35.3993
1392 1421949829 35.5578
1393 1421951049 35.8348
1394 1421952270 35.4777
1395 1421953491 35.1620
1396 1421954711 35.4602
1397 1421955932 35.7274
1398 1421957153 35.3155
1399 1421958374 35.2573
1400 1421959594 35.5265
1401 1421960815 35.5573
1402 1421962036 35.7186
1403 1421963256 35.9046
1404 1421964477 36.0044
1405 1421965698 35.6847
1406 1421966918 35.6465
1407 1421968139 35.4264
1408 1421969360 35.4885
1409 1421970581 35.4700
1410 1421971801 35.7605
1411 1421973022 35.7817
1412 1421974243 35.5721
1413 1421975463 35.9063
1414 1421976684 36.6717
1415 1421977905 36.7189
1416 1421979125 35.9436
1417 1421980346 35.4075
1418 1421981567 35.3499
1419 1421982788 35.3560
1420 1421984008 35.5300
1421 1421985229 35.5514
1422 1421986450 35.4286
1423 1421987670 35.3914
1424 1421988891 35.3308
1425 1421990112 35.1827
1426 1421991333 34.9896
1427 1421992553 35.2891
1428 1421993774 35.8573
1429 1421994995 35.5978
1430 1421996215 35.8472
1431 1421997436 35.8972
1432 1421998657 35.6422
1433 1421999877 36.2230
1434 1422001098 35.3996
1435 1422002319 35.7553
1436 1422003540 47.9540
1437 1422004760 412.0334
1438 1422005981 310.3516
1439 1422007202 39.4236
1440 1422008422 36.4585
1441 1422009643 36.2354
1442 1422010864 36.1936
1443 1422012084 36.6734
1444 1422013305 35.9026
1445 1422014526 35.3510
1446 1422015747 35.5642
1447 1422016967 35.6491
1448 1422018188 35.8967
1449 1422019409 36.3161
1450 1422020629 35.3898
1451 1422021850 35.9399
1452 1422023071 35.7193
1453 1422024291 35.7043
1454 1422025512 35.7425
1455 1422026733 36.1977
1456 1422027954 35.6343
1457 1422029174 35.9842
1458 1422030395 35.5216
1459 1422031616 36.0212
1460 1422032836 35.7120
1461 1422034057 35.6175
1462 1422035278 35.9025
1463 1422036499 36.2301
1464 1422037719 35.7732
1465 1422038940 35.9082
1466 1422040161 36.0653
1467 1422041381 35.6602
1468 1422042602 35.4044
1469 1422043823 35.9762
1470 1422045043 36.0997
1471 1422046264 36.5445
1472 1422047485 35.9530
1473 1422048706 35.9529
1474 1422049926 35.9977
1475 1422051147 35.6354
1476 1422052368 35.4948
1477 1422053588 35.6583
1478 1422054809 35.7771
1479 1422056030 35.6808
1480 1422057250 35.7572
1481 1422058471 35.6922
1482 1422059692 36.1173
1483 1422060913 35.8168
1484 1422062133 35.8158
1485 1422063354 35.8600
1486 1422064575 35.7867
1487 1422065795 35.7731
1488 1422067016 35.6671
1489 1422068237 36.2990
1490 1422069458 35.4382
1491 1422070678 36.3982
1492 1422071899 36.7483
1493 1422073120 35.8938
1494 1422074340 36.1139
1495 1422075561 35.9363
1496 1422076782 35.7274
1497 1422078002 35.7778
1498 1422079223 36.0009
1499 1422080444 36.0726
1500 1422081665 35.9370
1501 1422082885 35.7930
1502 1422084106 35.8584
1503 1422085327 35.5951
1504 1422086547 35.8233
1505 1422087768 36.1161
1506 1422088989 35.5135
1507 1422090209 35.8504
1508 1422091430 35.6841
1509 1422092651 35.4953
1510 1422093872 35.6187
1511 1422095092 35.6321
1512 1422096313 35.5189
1513 1422097534 36.2385
1514 1422098754 36.0618
1515 1422099975 35.8673
1516 1422101196 36.0253
1517 1422102416 35.6867
1518 1422103637 36.1519
1519 1422104858 35.9484
1520 1422106079 36.1255
1521 1422107299 36.0831
1522 1422108520 36.2509
1523 1422109741 36.0544
1524 1422110961 35.8152
1525 1422112182 36.4594
1526 1422113403 36.0685
1527 1422114624 36.0594
1528 1422115844 36.1378
1529 1422117065 35.6206
1530 1422118286 35.5251
1531 1422119506 35.5716
1532 1422120727 35.9980
1533 1422121948 36.1721
1534 1422123168 36.4250
1535 1422124389 36.3428
1536 1422125610 35.6963
1537 1422126831 35.9083
1538 1422128051 35.7403
1539 1422129272 35.9684
1540 1422130493 36.3090
1541 1422131713 35.9936
1542 1422132934 35.7888
1543 1422134155 36.0780
1544 1422135375 35.9459
1545 1422136596 36.1270
1546 1422137817 36.5560
1547 1422139038 36.3665
1548 1422140258 36.2503
1549 1422141479 36.0971
1550 1422142700 36.1554
1551 1422143920 36.4051
1552 1422145141 36.1158
1553 1422146362 36.3135
1554 1422147583 36.1893
1555 1422148803 36.0827
1556 1422150024 36.5038
1557 1422151245 36.4601
1558 1422152465 36.1458
1559 1422153686 36.4489
1560 1422154907 35.8372
1561 1422156127 36.2326
1562 1422157348 36.3726
1563 1422158569 36.3294
1564 1422159790 36.0016
1565 1422161010 36.1747
1566 1422162231 35.5956
1567 1422163452 35.7216
1568 1422164672 36.2583
1569 1422165893 36.4671
1570 1422167114 36.0086
1571 1422168334 36.0098
1572 1422169555 35.9162
1573 1422170776 36.5305
1574 1422171997 36.1533
1575 1422173217 36.3595
1576 1422174438 36.4662
1577 1422175659 36.0358
1578 1422176879 36.1314
1579 1422178100 36.0762
1580 1422179321 36.4881
1581 1422180541 35.9923
1582 1422181762 35.5297
1583 1422182983 36.3471
1584 1422184204 36.4159
1585 1422185424 36.0596
1586 1422186645 35.9260
1587 1422187866 36.5719
1588 1422189086 36.6454
1589 1422190307 36.4471
1590 1422191528 36.7058
1591 1422192749 37.0157
1592 1422193969 36.0901
1593 1422195190 36.1871
1594 1422196411 36.2754
1595 1422197631 37.0946
1596 1422198852 37.3404
1597 1422200073 37.6895
1598 1422201293 38.0243
1599 1422202514 43.3308
1600 1422203735 39.4979
1601 1422204956 36.9602
1602 1422206176 36.5505
1603 1422207397 36.3312
1604 1422208618 36.3135
1605 1422209838 36.0858
1606 1422211059 35.6244
1607 1422212280 36.0319
1608 1422213500 35.8021
1609 1422214721 35.9399
1610 1422215942 36.0773
1611 1422217163 36.0584
1612 1422218383 35.7504
1613 1422219604 35.7268
1614 1422220825 35.7690
1615 1422222045 35.9385
1616 1422223266 36.0382
1617 1422224487 36.0916
1618 1422225708 35.7544
1619 1422226928 36.0248
1620 1422228149 36.2288
1621 1422229370 36.0949
1622 1422230590 36.0777
1623 1422231811 36.1066
1624 1422233032 35.9993
1625 1422234252 36.2675
1626 1422235473 35.8689
1627 1422236694 36.4999
1628 1422237915 35.8746
1629 1422239135 35.5957
1630 1422240356 35.9497
1631 1422241577 36.2534
1632 1422242797 36.2429
1633 1422244018 35.9361
1634 1422245239 36.0208
1635 1422246459 35.7705
1636 1422247680 35.8588
1637 1422248901 35.9356
1638 1422250122 36.1259
1639 1422251342 35.3325
1640 1422252563 35.9428
1641 1422253784 35.3970
1642 1422255004 35.7175
1643 1422256225 35.8909
1644 1422257446 35.9844
1645 1422258666 35.2484
1646 1422259887 35.8486
1647 1422261108 35.7341
1648 1422262329 35.6348
1649 1422263549 35.4853
1650 1422264770 35.0288
1651 1422265991 35.9768
1652 1422267211 35.8712
1653 1422268432 35.4220
1654 1422269653 35.5234
1655 1422270874 35.6669
1656 1422272094 35.6256
1657 1422273315 35.3418
1658 1422274536 35.2220
1659 1422275756 34.9977
1660 1422276977 34.7447
1661 1422278198 34.9667
1662 1422279418 35.0105
1663 1422280639 35.5880
1664 1422281860 35.2262
1665 1422283081 34.9615
1666 1422284301 34.5599
1667 1422285522 35.0138
1668 1422286743 34.6103
1669 1422287963 35.0090
1670 1422289184 34.9588
1671 1422290405 34.6523
1672 1422291625 35.1150
1673 1422292846 35.2347
1674 1422294067 35.1092
1675 1422295288 34.7524
1676 1422296508 35.1020
1677 1422297729 35.2352
1678 1422298950 34.6520
1679 1422300170 34.8229
1680 1422301391 34.3267
1681 1422302612 34.7487
1682 1422303833 34.3148
1683 1422305053 34.6083
1684 1422306274 35.0321
1685 1422307495 34.5041
1686 1422308715 34.5668
1687 1422309936 34.8343
1688 1422311157 34.2717
1689 1422312377 34.6463
1690 1422313598 34.1618
1691 1422314819 34.2791
1692 1422316040 34.4248
1693 1422317260 34.2991
1694 1422318481 34.4650
1695 1422319702 34.1262
1696 1422320922 33.9198
1697 1422322143 34.1138
1698 1422323364 33.9175
1699 1422324584 34.0944
1700 1422325805 34.1664
1701 1422327026 33.5017
1702 1422328247 33.3573
1703 1422329467 33.3898
1704 1422330688 33.1940
1705 1422331909 33.6586
1706 1422333129 32.9310
1707 1422334350 32.9728
1708 1422335571 33.5320
1709 1422336791 32.6853
1710 1422338012 33.2362
1711 1422339233 33.0716
1712 1422340454 32.5657
1713 1422341674 33.1668
1714 1422342895 33.1805
1715 1422344116 33.3862
1716 1422345336 32.5942
1717 1422346557 33.0902
1718 1422347778 32.7882
1719 1422348999 32.7790
1720 1422350219 32.6696
1721 1422351440 32.4045
1722 1422352661 32.1324
1723 1422353881 32.9792
1724 1422355102 32.6969
1725 1422356323 32.3418
1726 1422357543 32.2342
1727 1422358764 32.3246
1728 1422359985 31.9418
1729 1422361206 31.7967
1730 1422362426 31.8863
1731 1422363647 32.0139
1732 1422364868 31.9043
1733 1422366088 31.7622
1734 1422367309 31.9037
1735 1422368530 31.4002
1736 1422369750 31.1901
1737 1422370971 31.5235
1738 1422372192 31.5381
1739 1422373413 30.8952
1740 1422374633 31.2584
1741 1422375854 30.9351
1742 1422377075 31.1142
1743 1422378295 30.5176
1744 1422379516 30.7412
1745 1422380737 30.4121
1746 1422381958 30.7477
1747 1422383178 31.2279
1748 1422384399 30.8117
1749 1422385620 30.5051
1750 1422386840 30.1480
1751 1422388061 30.6673
1752 1422389282 30.3658
1753 1422390502 30.0717
1754 1422391723 30.5848
1755 1422392944 30.3012
1756 1422394165 30.1610
1757 1422395385 29.6945
1758 1422396606 30.0749
1759 1422397827 30.0703
1760 1422399047 30.1228
1761 1422400268 30.6167
1762 1422401489 29.7391
1763 1422402709 29.5579
1764 1422403930 29.3956
1765 1422405151 29.3458
1766 1422406372 29.3787
1767 1422407592 29.1928
1768 1422408813 29.2702
1769 1422410034 29.1273
1770 1422411254 29.0877
1771 1422412475 29.3113
1772 1422413696 29.1966
1773 1422414916 28.5576
1774 1422416137 28.7713
1775 1422417358 28.7475
1776 1422418579 28.8892
1777 1422419799 28.3137
1778 1422421020 28.2845
1779 1422422241 27.9859
1780 1422423461 28.1274
1781 1422424682 27.8635
1782 1422425903 28.1154
1783 1422427124 27.7199
1784 1422428344 27.9471
1785 1422429565 27.7343
1786 1422430786 27.3674
1787 1422432006 27.1400
1788 1422433227 27.0640
1789 1422434448 27.0317
1790 1422435668 27.2349
1791 1422436889 27.1672
1792 1422438110 26.7553
1793 1422439331 27.1861
1794 1422440551 26.9896
1795 1422441772 26.6788
1796 1422442993 26.4688
1797 1422444213 26.7942
1798 1422445434 26.3985
1799 1422446655 26.2410
1800 1422447875 26.1084
1801 1422449096 25.9196
1802 1422450317 26.3425
1803 1422451538 26.1057
1804 1422452758 25.6831
1805 1422453979 25.6967
1806 1422455200 25.9197
1807 1422456420 25.8880
1808 1422457641 25.6624
1809 1422458862 25.2032
1810 1422460083 25.2583
1811 1422461303 25.2565
1812 1422462524 24.9089
1813 1422463745 24.9134
1814 1422464965 24.6209
1815 1422466186 24.4475
1816 1422467407 24.5099
1817 1422468627 24.5492
1818 1422469848 24.3749
1819 1422471069 24.6770
1820 1422472290 24.6518
1821 1422473510 24.3595
1822 1422474731 24.3601
1823 1422475952 24.0837
1824 1422477172 23.9551
1825 1422478393 23.6093
1826 1422479614 23.7803
1827 1422480834 23.8603
1828 1422482055 23.7563
1829 1422483276 23.4574
1830 1422484497 23.2792
1831 1422485717 23.3700
1832 1422486938 23.0067
1833 1422488159 22.9514
1834 1422489379 22.9846
1835 1422490600 22.4655
1836 1422491821 22.7627
1837 1422493041 22.4696
1838 1422494262 22.4408
1839 1422495483 22.3151
1840 1422496704 21.9038
1841 1422497924 22.1458
1842 1422499145 21.8629
1843 1422500366 21.7878
1844 1422501586 21.6803
1845 1422502807 21.7279
1846 1422504028 21.4834
1847 1422505249 21.4329
1848 1422506469 21.4146
1849 1422507690 21.3740
1850 1422508911 21.5153
1851 1422510131 21.2739
1852 1422511352 21.1508
1853 1422512573 20.9128
1854 1422513793 20.5246
1855 1422515014 20.4112
1856 1422516235 20.4236
1857 1422517456 20.5471
1858 1422518676 20.1455
1859 1422519897 19.9285
1860 1422521118 20.1839
1861 1422522338 20.3205
1862 1422523559 19.8000
1863 1422524780 19.9688
1864 1422526000 19.6360
1865 1422527221 19.8418
1866 1422528442 19.6957
1867 1422529663 19.4926
1868 1422530883 19.0709
1869 1422532104 19.1786
1870 1422533325 18.8424
1871 1422534545 19.0386
1872 1422535766 19.0693
1873 1422536987 18.7162
1874 1422538208 18.8820
1875 1422539428 18.7378
1876 1422540649 18.2799
1877 1422541870 18.8069
1878 1422543090 18.4218
1879 1422544311 17.9537
1880 1422545532 17.9180
1881 1422546752 17.8698
1882 1422547973 17.7061
1883 1422549194 17.7059
1884 1422550415 17.6148
1885 1422551635 17.8350
1886 1422552856 17.5670
1887 1422554077 17.5115
1888 1422555297 17.2282
1889 1422556518 17.1860
1890 1422557739 17.1875
1891 1422558959 16.8879
1892 1422560180 16.8397
1893 1422561401 16.8086
1894 1422562622 16.4961
1895 1422563842 16.4416
1896 1422565063 16.4500
1897 1422566284 16.2356
1898 1422567504 16.1583
1899 1422568725 16.0871
1900 1422569946 16.0466
1901 1422571166 15.9137
1902 1422572387 15.6453
1903 1422573608 15.7094
1904 1422574829 15.6291
1905 1422576049 15.3760
1906 1422577270 15.4298
1907 1422578491 15.3377
1908 1422579711 15.3612
1909 1422580932 15.3655
1910 1422582153 15.1213
1911 1422583374 14.8750
1912 1422584594 15.2180
1913 1422585815 14.7644
1914 1422587036 14.7116
1915 1422588256 14.5272
1916 1422589477 14.3597
1917 1422590698 14.3786
1918 1422591918 14.4553
1919 1422593139 14.3242
1920 1422594360 14.1326
1921 1422595581 14.1762
1922 1422596801 13.9849
1923 1422598022 13.8077
1924 1422599243 13.6140
1925 1422600463 13.5027
1926 1422601684 13.5433
1927 1422602905 13.6721
1928 1422604125 13.3984
1929 1422605346 13.4895
1930 1422606567 13.3320
1931 1422607788 13.3964
1932 1422609008 13.2535
1933 1422610229 13.1313
1934 1422611450 12.9814
1935 1422612670 12.8672
1936 1422613891 12.7514
1937 1422615112 12.6248
1938 1422616333 12.3836
1939 1422617553 12.4762
1940 1422618774 12.4044
1941 1422619995 12.1560
1942 1422621215 12.2729
1943 1422622436 12.2585
1944 1422623657 12.1209
1945 1422624877 11.9518
1946 1422626098 11.9024
1947 1422627319 11.8248
1948 1422628540 11.8331
1949 1422629760 11.7721
1950 1422630981 11.6061
1951 1422632202 11.4066
1952 1422633422 11.4320
1953 1422634643 11.4763
1954 1422635864 11.2394
1955 1422637084 11.2111
1956 1422638305 11.3185
1957 1422639526 10.9393
1958 1422640747 10.8308
1959 1422641967 10.9985
1960 1422643188 10.7847
1961 1422644409 10.8375
1962 1422645629 10.8172
1963 1422646850 10.6245
1964 1422648071 10.4448
1965 1422649291 10.5586
1966 1422650512 10.3816
1967 1422651733 10.1730
1968 1422652954 10.2154
1969 1422654174 10.2315
1970 1422655395 10.2532
1971 1422656616 10.1927
1972 1422657836 10.1124
1973 1422659057 9.9612
1974 1422660278 9.9366
1975 1422661499 9.8905
1976 1422662719 9.8277
1977 1422663940 9.6866
1978 1422665161 9.6750
1979 1422666381 9.4882
1980 1422667602 9.6414
1981 1422668823 9.5230
1982 1422670043 9.5554
1983 1422671264 9.4109
1984 1422672485 9.3931
1985 1422673706 9.3785
1986 1422674926 9.3122
1987 1422676147 9.0887
1988 1422677368 9.0396
1989 1422678588 9.1052
1990 1422679809 9.0158
1991 1422681030 8.9335
1992 1422682250 8.9961
1993 1422683471 8.8294
1994 1422684692 8.8441
1995 1422685913 8.7937
1996 1422687133 8.7791
1997 1422688354 8.7620
1998 1422689575 8.7083
1999 1422690795 8.5423
2000 1422692016 8.6038
2001 1422693237 8.6041
2002 1422694458 8.6646
2003 1422695678 8.5404
2004 1422696899 8.5061
2005 1422698120 8.3557
2006 1422699340 8.5483
2007 1422700561 8.6100
2008 1422701782 8.2876
2009 1422703002 8.2251
2010 1422704223 8.3251
2011 1422705444 8.2574
2012 1422706665 8.2558
2013 1422707885 8.1539
2014 1422709106 8.1553
2015 1422710327 8.0381
2016 1422711547 7.9712
2017 1422712768 8.0068
2018 1422713989 8.0601
2019 1422715209 8.0115
2020 1422716430 8.0150
2021 1422717651 7.8631
2022 1422718872 7.8553
2023 1422720092 7.8062
2024 1422721313 7.8845
2025 1422722534 7.7862
2026 1422723754 7.8365
2027 1422724975 7.7796
2028 1422726196 7.6720
2029 1422727416 7.7512
2030 1422728637 7.7365
2031 1422729858 7.6500
2032 1422731079 7.6516
2033 1422732299 7.6099
2034 1422733520 7.6365
2035 1422734741 7.6707
2036 1422735961 7.5780
2037 1422737182 7.6562
2038 1422738403 7.5684
2039 1422739624 7.5378
2040 1422740844 7.4630
2041 1422742065 7.5176
2042 1422743286 7.5996
2043 1422744506 7.6310
2044 1422745727 7.5784
2045 1422746948 7.5130
2046 1422748168 7.5854
2047 1422749389 7.9343
