# File: 20-06-07T200107.ast
# NOTEA     = None Attached.  RTLSDR Dongle Test
# NOTEB     = Spectral Integration
# OBSERVER  = Science Aficionado
# DEVICE    = rtl=0,bias=1
# DATADIR   = ../data/
# SITE      = None Attached.  RTLSDR Dongle Test
# CITY      = Seattle
# REGION    = Washington
# COUNTRY   = US
# TELTYPE   = UW CSE 490W Dish
# FRAME     = TOPO
# GAIN1     = 49.0
# GAIN2     = 11.0
# GAIN3     = 11.0
# GAIN4     = 0.0
# Count     = 2500
# CenterFreq= 1421500000.0
# Bandwidth = 2500000.0
# Duration  = 41.945205
# DeltaX    = 5859.375
# TSYS      = 200.0
# TRX       = 100.0
# TRMS      = 2.0
# TINT      = 1.0
# KPERC     = 100.0
# GAINFACT  = 1.0
# BUNIT     = Counts
# NCHAN     = 2048
# NSPEC     = 1
# NTIME     = 0
# NSAMPLES  = 0
# EPEAK     = 4.10875183718
# ERMS      = 0.995973393526
# EMJD      = 58568.808999981004 
# REFCHAN   = 1024.0
# REFSAMPL  = 256.0
# NAVE      = 50
# NMEDIAN   = 1024
# Fft_rate  = 5000
# UTC       = 2020-06-07 20:01:07.673115
# SECONDS   =       0.0000000000 
# LST       = 09:17:04.240
# AZ        = 180.0
# EL        = 90.0
# TELLON    = -57:41:09.900
# TELLAT    = +47:39:13.800
# RA        = 09:14:21.490
# DEC       = +47:49:14.400
# GALLON    = 171:31:15.70
# GALLAT    = +43:22:59.90
# ALT_SUN   = +34:47:51.6
# AZ_SUN    = +266:33:21.1
# ETAA      = 0.8
# ETAB      = 0.99
# POLANGLE  = 0.0
# TELSIZEAM = 1.0
# TELSIZEBM = 1.0
# AST_VERS  = 05.01
0000 1420250610 7.7379
0001 1420251831 7.7807
0002 1420253051 7.7104
0003 1420254272 7.5905
0004 1420255493 7.6949
0005 1420256713 7.6409
0006 1420257934 7.6694
0007 1420259155 7.7311
0008 1420260375 7.6996
0009 1420261596 7.7097
0010 1420262817 7.6901
0011 1420264038 7.7763
0012 1420265258 7.8341
0013 1420266479 7.8269
0014 1420267700 7.6446
0015 1420268920 7.7855
0016 1420270141 7.7847
0017 1420271362 7.7774
0018 1420272583 7.8249
0019 1420273803 7.8291
0020 1420275024 7.8010
0021 1420276245 7.8300
0022 1420277465 7.9081
0023 1420278686 7.9285
0024 1420279907 7.8809
0025 1420281127 8.0752
0026 1420282348 7.9006
0027 1420283569 8.0200
0028 1420284790 8.0972
0029 1420286010 8.0885
0030 1420287231 8.0553
0031 1420288452 8.1537
0032 1420289672 8.1717
0033 1420290893 8.3536
0034 1420292114 8.3085
0035 1420293334 8.4537
0036 1420294555 8.3670
0037 1420295776 8.3047
0038 1420296997 8.5390
0039 1420298217 8.4151
0040 1420299438 8.5802
0041 1420300659 8.8969
0042 1420301879 8.6463
0043 1420303100 8.7743
0044 1420304321 8.6925
0045 1420305541 8.5945
0046 1420306762 8.5412
0047 1420307983 8.6906
0048 1420309204 8.8377
0049 1420310424 8.8866
0050 1420311645 8.9865
0051 1420312866 8.9742
0052 1420314086 9.0201
0053 1420315307 8.9872
0054 1420316528 9.0611
0055 1420317749 9.2251
0056 1420318969 9.4269
0057 1420320190 9.1926
0058 1420321411 9.2473
0059 1420322631 9.3340
0060 1420323852 9.5415
0061 1420325073 9.4138
0062 1420326293 9.3767
0063 1420327514 9.5691
0064 1420328735 9.5744
0065 1420329956 9.4664
0066 1420331176 9.7155
0067 1420332397 9.7907
0068 1420333618 9.9421
0069 1420334838 9.9016
0070 1420336059 9.9196
0071 1420337280 9.9456
0072 1420338500 10.0509
0073 1420339721 10.1535
0074 1420340942 10.0887
0075 1420342163 10.1363
0076 1420343383 10.4146
0077 1420344604 10.3258
0078 1420345825 10.3016
0079 1420347045 10.3131
0080 1420348266 10.3187
0081 1420349487 10.5014
0082 1420350708 10.5724
0083 1420351928 10.5579
0084 1420353149 10.6313
0085 1420354370 10.7590
0086 1420355590 10.7489
0087 1420356811 10.9911
0088 1420358032 10.8998
0089 1420359252 11.1608
0090 1420360473 10.9776
0091 1420361694 11.1065
0092 1420362915 11.2365
0093 1420364135 11.3035
0094 1420365356 11.2453
0095 1420366577 11.2952
0096 1420367797 11.3562
0097 1420369018 11.5283
0098 1420370239 11.6188
0099 1420371459 11.5885
0100 1420372680 11.7422
0101 1420373901 11.8857
0102 1420375122 11.8579
0103 1420376342 11.9289
0104 1420377563 12.0256
0105 1420378784 11.9773
0106 1420380004 12.0972
0107 1420381225 12.2542
0108 1420382446 12.1635
0109 1420383666 12.4936
0110 1420384887 12.4149
0111 1420386108 12.5217
0112 1420387329 12.6102
0113 1420388549 12.5281
0114 1420389770 12.7554
0115 1420390991 12.9017
0116 1420392211 12.8935
0117 1420393432 12.9125
0118 1420394653 13.0937
0119 1420395874 13.1966
0120 1420397094 13.2127
0121 1420398315 13.2620
0122 1420399536 13.3466
0123 1420400756 13.3404
0124 1420401977 13.5633
0125 1420403198 13.8560
0126 1420404418 13.7616
0127 1420405639 14.0228
0128 1420406860 13.7138
0129 1420408081 14.1087
0130 1420409301 14.0323
0131 1420410522 14.0339
0132 1420411743 14.2103
0133 1420412963 14.3382
0134 1420414184 14.3659
0135 1420415405 14.5966
0136 1420416625 15.0980
0137 1420417846 14.6557
0138 1420419067 14.7419
0139 1420420288 14.9056
0140 1420421508 14.9813
0141 1420422729 14.8582
0142 1420423950 14.9760
0143 1420425170 15.1676
0144 1420426391 15.4612
0145 1420427612 15.7507
0146 1420428833 15.4569
0147 1420430053 15.5073
0148 1420431274 15.6926
0149 1420432495 15.8995
0150 1420433715 16.0216
0151 1420434936 15.9481
0152 1420436157 16.0805
0153 1420437377 16.1473
0154 1420438598 16.2095
0155 1420439819 16.2017
0156 1420441040 16.5107
0157 1420442260 16.6199
0158 1420443481 16.6298
0159 1420444702 16.9363
0160 1420445922 16.8831
0161 1420447143 16.8765
0162 1420448364 16.9353
0163 1420449584 16.6362
0164 1420450805 17.0664
0165 1420452026 17.1818
0166 1420453247 17.0334
0167 1420454467 17.6598
0168 1420455688 17.6553
0169 1420456909 17.8553
0170 1420458129 17.6518
0171 1420459350 17.8619
0172 1420460571 17.7669
0173 1420461791 18.0250
0174 1420463012 18.0159
0175 1420464233 18.4548
0176 1420465454 18.2210
0177 1420466674 18.4481
0178 1420467895 18.6894
0179 1420469116 18.6574
0180 1420470336 18.7781
0181 1420471557 18.9256
0182 1420472778 19.0321
0183 1420473999 19.0690
0184 1420475219 19.0391
0185 1420476440 19.2688
0186 1420477661 19.2260
0187 1420478881 19.3439
0188 1420480102 19.3820
0189 1420481323 19.7851
0190 1420482543 19.7954
0191 1420483764 20.0427
0192 1420484985 20.1037
0193 1420486206 19.9671
0194 1420487426 19.8342
0195 1420488647 20.2000
0196 1420489868 20.4656
0197 1420491088 20.4091
0198 1420492309 20.4781
0199 1420493530 20.4751
0200 1420494750 20.4304
0201 1420495971 21.2206
0202 1420497192 21.0536
0203 1420498413 21.3629
0204 1420499633 22.0412
0205 1420500854 21.1012
0206 1420502075 21.2959
0207 1420503295 21.2878
0208 1420504516 21.7534
0209 1420505737 21.3534
0210 1420506958 21.7610
0211 1420508178 21.5551
0212 1420509399 21.6327
0213 1420510620 21.7320
0214 1420511840 21.8637
0215 1420513061 21.8308
0216 1420514282 22.3306
0217 1420515502 22.7334
0218 1420516723 22.4775
0219 1420517944 22.3472
0220 1420519165 22.3473
0221 1420520385 22.5308
0222 1420521606 22.8191
0223 1420522827 22.8408
0224 1420524047 23.0981
0225 1420525268 23.0759
0226 1420526489 23.3293
0227 1420527709 23.3589
0228 1420528930 23.3148
0229 1420530151 23.5461
0230 1420531372 23.3789
0231 1420532592 23.5515
0232 1420533813 23.7189
0233 1420535034 23.8863
0234 1420536254 23.9841
0235 1420537475 23.6797
0236 1420538696 23.9333
0237 1420539916 24.0484
0238 1420541137 24.2084
0239 1420542358 24.2786
0240 1420543579 24.6332
0241 1420544799 24.3310
0242 1420546020 24.5327
0243 1420547241 24.5445
0244 1420548461 24.5607
0245 1420549682 24.9294
0246 1420550903 24.8738
0247 1420552124 25.3453
0248 1420553344 25.0216
0249 1420554565 25.5863
0250 1420555786 25.5031
0251 1420557006 25.6560
0252 1420558227 25.5033
0253 1420559448 25.5750
0254 1420560668 25.7969
0255 1420561889 26.0668
0256 1420563110 26.0191
0257 1420564331 26.0734
0258 1420565551 26.2808
0259 1420566772 26.1323
0260 1420567993 26.6182
0261 1420569213 26.3995
0262 1420570434 26.3026
0263 1420571655 26.4230
0264 1420572875 26.6953
0265 1420574096 26.8243
0266 1420575317 26.5361
0267 1420576538 26.6087
0268 1420577758 26.6987
0269 1420578979 26.7831
0270 1420580200 27.2537
0271 1420581420 27.4458
0272 1420582641 27.0869
0273 1420583862 27.3322
0274 1420585083 27.4525
0275 1420586303 27.5805
0276 1420587524 27.9655
0277 1420588745 27.9255
0278 1420589965 27.8062
0279 1420591186 27.6786
0280 1420592407 27.7800
0281 1420593627 27.8672
0282 1420594848 27.9790
0283 1420596069 28.0240
0284 1420597290 28.2675
0285 1420598510 28.4486
0286 1420599731 28.8704
0287 1420600952 28.7421
0288 1420602172 29.1485
0289 1420603393 28.7515
0290 1420604614 28.6719
0291 1420605834 28.7780
0292 1420607055 29.4271
0293 1420608276 28.9005
0294 1420609497 29.0767
0295 1420610717 29.1565
0296 1420611938 29.1428
0297 1420613159 29.1348
0298 1420614379 29.4387
0299 1420615600 29.3200
0300 1420616821 29.5340
0301 1420618041 29.9569
0302 1420619262 29.8120
0303 1420620483 29.4177
0304 1420621704 29.9922
0305 1420622924 29.9330
0306 1420624145 29.5737
0307 1420625366 29.9963
0308 1420626586 30.0849
0309 1420627807 30.1351
0310 1420629028 29.9457
0311 1420630249 30.6177
0312 1420631469 30.3768
0313 1420632690 30.4283
0314 1420633911 30.9490
0315 1420635131 33.0654
0316 1420636352 30.6605
0317 1420637573 30.5657
0318 1420638793 30.5595
0319 1420640014 30.8005
0320 1420641235 31.2099
0321 1420642456 30.8890
0322 1420643676 31.4288
0323 1420644897 30.9036
0324 1420646118 31.3738
0325 1420647338 31.2159
0326 1420648559 31.3000
0327 1420649780 30.9790
0328 1420651000 30.7831
0329 1420652221 31.6537
0330 1420653442 31.4740
0331 1420654663 31.4252
0332 1420655883 31.5557
0333 1420657104 31.7955
0334 1420658325 31.8830
0335 1420659545 31.6930
0336 1420660766 32.1959
0337 1420661987 31.8077
0338 1420663208 32.4520
0339 1420664428 31.9321
0340 1420665649 32.1348
0341 1420666870 32.1018
0342 1420668090 31.9163
0343 1420669311 32.3391
0344 1420670532 32.1150
0345 1420671752 32.6718
0346 1420672973 32.2975
0347 1420674194 32.0571
0348 1420675415 32.5666
0349 1420676635 32.5966
0350 1420677856 32.5612
0351 1420679077 32.8070
0352 1420680297 32.4538
0353 1420681518 32.7934
0354 1420682739 32.7626
0355 1420683959 32.6593
0356 1420685180 32.7328
0357 1420686401 33.0485
0358 1420687622 33.0713
0359 1420688842 32.9637
0360 1420690063 32.8544
0361 1420691284 33.2723
0362 1420692504 33.1421
0363 1420693725 33.0974
0364 1420694946 33.2240
0365 1420696166 33.0111
0366 1420697387 33.5311
0367 1420698608 33.4886
0368 1420699829 33.5088
0369 1420701049 33.5041
0370 1420702270 33.6017
0371 1420703491 33.3831
0372 1420704711 33.3696
0373 1420705932 33.2043
0374 1420707153 33.4688
0375 1420708374 33.4095
0376 1420709594 33.9819
0377 1420710815 33.4400
0378 1420712036 33.7041
0379 1420713256 34.0592
0380 1420714477 34.0365
0381 1420715698 33.7416
0382 1420716918 33.6945
0383 1420718139 33.5275
0384 1420719360 34.0657
0385 1420720581 34.1556
0386 1420721801 33.8835
0387 1420723022 33.9649
0388 1420724243 33.6545
0389 1420725463 33.6887
0390 1420726684 33.6483
0391 1420727905 34.0085
0392 1420729125 33.7666
0393 1420730346 34.2851
0394 1420731567 34.4496
0395 1420732788 33.9409
0396 1420734008 33.9054
0397 1420735229 34.4718
0398 1420736450 34.5089
0399 1420737670 34.2558
0400 1420738891 34.1130
0401 1420740112 34.1886
0402 1420741333 34.7883
0403 1420742553 34.5130
0404 1420743774 34.6810
0405 1420744995 34.5282
0406 1420746215 34.6834
0407 1420747436 34.9205
0408 1420748657 34.2038
0409 1420749877 34.6088
0410 1420751098 34.3121
0411 1420752319 34.2938
0412 1420753540 34.4223
0413 1420754760 34.6097
0414 1420755981 34.5729
0415 1420757202 34.6570
0416 1420758422 34.5342
0417 1420759643 34.5682
0418 1420760864 34.8822
0419 1420762084 34.7695
0420 1420763305 34.8134
0421 1420764526 34.3678
0422 1420765747 34.7345
0423 1420766967 35.1477
0424 1420768188 34.7074
0425 1420769409 35.1456
0426 1420770629 35.5677
0427 1420771850 34.4752
0428 1420773071 34.7830
0429 1420774291 35.0009
0430 1420775512 35.0600
0431 1420776733 35.3052
0432 1420777954 35.4198
0433 1420779174 34.9895
0434 1420780395 35.3799
0435 1420781616 35.2665
0436 1420782836 35.2122
0437 1420784057 35.1692
0438 1420785278 35.4587
0439 1420786499 35.1541
0440 1420787719 35.1221
0441 1420788940 35.0721
0442 1420790161 34.6061
0443 1420791381 34.5786
0444 1420792602 35.1101
0445 1420793823 35.0843
0446 1420795043 35.2491
0447 1420796264 35.5176
0448 1420797485 35.7426
0449 1420798706 35.1889
0450 1420799926 37.3155
0451 1420801147 37.5610
0452 1420802368 35.4575
0453 1420803588 37.3844
0454 1420804809 44.6851
0455 1420806030 36.5704
0456 1420807250 34.8058
0457 1420808471 35.2295
0458 1420809692 35.6224
0459 1420810913 35.3491
0460 1420812133 35.0719
0461 1420813354 35.2710
0462 1420814575 35.6057
0463 1420815795 35.0806
0464 1420817016 34.9988
0465 1420818237 35.6926
0466 1420819458 35.9572
0467 1420820678 35.4623
0468 1420821899 35.9339
0469 1420823120 35.4651
0470 1420824340 35.3787
0471 1420825561 35.3112
0472 1420826782 35.7193
0473 1420828002 35.6717
0474 1420829223 35.2349
0475 1420830444 35.6021
0476 1420831665 35.5738
0477 1420832885 34.9479
0478 1420834106 35.2711
0479 1420835327 35.4116
0480 1420836547 35.5885
0481 1420837768 35.5683
0482 1420838989 34.9367
0483 1420840209 35.1879
0484 1420841430 35.5964
0485 1420842651 34.8997
0486 1420843872 35.4533
0487 1420845092 34.8168
0488 1420846313 34.9938
0489 1420847534 35.6851
0490 1420848754 35.2551
0491 1420849975 35.2853
0492 1420851196 34.6330
0493 1420852416 35.3856
0494 1420853637 35.1716
0495 1420854858 35.5314
0496 1420856079 35.4256
0497 1420857299 35.1318
0498 1420858520 35.1853
0499 1420859741 35.4057
0500 1420860961 34.9546
0501 1420862182 35.3799
0502 1420863403 35.7170
0503 1420864624 34.9361
0504 1420865844 35.3314
0505 1420867065 34.9673
0506 1420868286 35.2775
0507 1420869506 35.4209
0508 1420870727 35.4043
0509 1420871948 35.2859
0510 1420873168 35.3330
0511 1420874389 35.2428
0512 1420875610 35.1699
0513 1420876831 35.4131
0514 1420878051 35.4134
0515 1420879272 35.1836
0516 1420880493 34.8444
0517 1420881713 34.2964
0518 1420882934 34.6463
0519 1420884155 34.9090
0520 1420885375 35.0510
0521 1420886596 34.9171
0522 1420887817 35.0718
0523 1420889038 34.8191
0524 1420890258 35.1630
0525 1420891479 34.6465
0526 1420892700 35.0072
0527 1420893920 35.2773
0528 1420895141 34.5546
0529 1420896362 34.8242
0530 1420897583 34.8289
0531 1420898803 34.7168
0532 1420900024 35.1660
0533 1420901245 34.6635
0534 1420902465 35.2211
0535 1420903686 34.9451
0536 1420904907 35.0199
0537 1420906127 35.3327
0538 1420907348 34.7727
0539 1420908569 34.9411
0540 1420909790 34.9018
0541 1420911010 34.5428
0542 1420912231 35.0267
0543 1420913452 35.1492
0544 1420914672 34.4234
0545 1420915893 35.1422
0546 1420917114 34.8564
0547 1420918334 35.0325
0548 1420919555 35.0741
0549 1420920776 34.9977
0550 1420921997 34.8578
0551 1420923217 35.1545
0552 1420924438 34.9949
0553 1420925659 35.0875
0554 1420926879 35.0468
0555 1420928100 34.5529
0556 1420929321 34.7301
0557 1420930541 34.5049
0558 1420931762 35.4040
0559 1420932983 34.8589
0560 1420934204 34.9119
0561 1420935424 34.7180
0562 1420936645 34.9996
0563 1420937866 34.8221
0564 1420939086 35.3277
0565 1420940307 34.6766
0566 1420941528 34.8054
0567 1420942749 34.2266
0568 1420943969 34.3508
0569 1420945190 34.8229
0570 1420946411 34.8267
0571 1420947631 34.7120
0572 1420948852 35.0777
0573 1420950073 34.5918
0574 1420951293 34.7879
0575 1420952514 34.5646
0576 1420953735 34.2060
0577 1420954956 35.1063
0578 1420956176 34.7750
0579 1420957397 34.7115
0580 1420958618 34.4665
0581 1420959838 34.7416
0582 1420961059 34.7458
0583 1420962280 34.5597
0584 1420963500 34.4353
0585 1420964721 34.6260
0586 1420965942 34.5285
0587 1420967163 34.6054
0588 1420968383 35.0517
0589 1420969604 34.7365
0590 1420970825 34.5944
0591 1420972045 34.0728
0592 1420973266 34.7194
0593 1420974487 34.7735
0594 1420975708 34.9809
0595 1420976928 34.6388
0596 1420978149 34.6384
0597 1420979370 34.9033
0598 1420980590 34.9127
0599 1420981811 34.6397
0600 1420983032 34.4273
0601 1420984252 34.7208
0602 1420985473 34.7588
0603 1420986694 34.8412
0604 1420987915 34.5354
0605 1420989135 34.7218
0606 1420990356 34.2330
0607 1420991577 34.7887
0608 1420992797 34.6206
0609 1420994018 34.9283
0610 1420995239 34.8812
0611 1420996459 35.2654
0612 1420997680 35.1307
0613 1420998901 35.4106
0614 1421000122 34.5976
0615 1421001342 34.8406
0616 1421002563 34.9329
0617 1421003784 34.4059
0618 1421005004 34.7528
0619 1421006225 34.8027
0620 1421007446 34.8918
0621 1421008666 34.6741
0622 1421009887 34.9685
0623 1421011108 34.9194
0624 1421012329 34.6142
0625 1421013549 34.4745
0626 1421014770 34.3772
0627 1421015991 34.5223
0628 1421017211 34.9529
0629 1421018432 34.8567
0630 1421019653 34.8831
0631 1421020874 34.6571
0632 1421022094 34.5528
0633 1421023315 34.4090
0634 1421024536 34.6756
0635 1421025756 34.7334
0636 1421026977 34.7127
0637 1421028198 34.7322
0638 1421029418 34.8588
0639 1421030639 34.6172
0640 1421031860 34.7164
0641 1421033081 34.6182
0642 1421034301 34.6843
0643 1421035522 34.9906
0644 1421036743 34.5739
0645 1421037963 34.9717
0646 1421039184 34.9852
0647 1421040405 34.9965
0648 1421041625 34.7349
0649 1421042846 34.3746
0650 1421044067 35.0355
0651 1421045288 35.1217
0652 1421046508 34.9431
0653 1421047729 35.6706
0654 1421048950 35.6616
0655 1421050170 35.0917
0656 1421051391 35.1976
0657 1421052612 34.7613
0658 1421053833 34.7098
0659 1421055053 35.1125
0660 1421056274 34.9963
0661 1421057495 34.6555
0662 1421058715 34.4276
0663 1421059936 34.1956
0664 1421061157 35.2436
0665 1421062377 35.1952
0666 1421063598 34.9063
0667 1421064819 34.8446
0668 1421066040 34.7859
0669 1421067260 34.8844
0670 1421068481 34.6527
0671 1421069702 34.8645
0672 1421070922 34.9923
0673 1421072143 34.9223
0674 1421073364 35.1525
0675 1421074584 35.1452
0676 1421075805 35.0623
0677 1421077026 34.7342
0678 1421078247 34.8992
0679 1421079467 35.3574
0680 1421080688 35.0452
0681 1421081909 35.0717
0682 1421083129 35.2715
0683 1421084350 35.4120
0684 1421085571 34.8553
0685 1421086791 35.2176
0686 1421088012 35.0359
0687 1421089233 35.2979
0688 1421090454 35.0537
0689 1421091674 35.2968
0690 1421092895 35.6033
0691 1421094116 35.2607
0692 1421095336 35.6180
0693 1421096557 35.4615
0694 1421097778 35.2897
0695 1421098999 35.3429
0696 1421100219 35.1907
0697 1421101440 35.0368
0698 1421102661 35.5656
0699 1421103881 34.8193
0700 1421105102 35.3215
0701 1421106323 35.3486
0702 1421107543 35.4131
0703 1421108764 35.8069
0704 1421109985 35.7201
0705 1421111206 35.3292
0706 1421112426 35.6370
0707 1421113647 35.5221
0708 1421114868 34.8232
0709 1421116088 35.8086
0710 1421117309 36.1451
0711 1421118530 36.2775
0712 1421119750 35.6196
0713 1421120971 35.7607
0714 1421122192 35.8939
0715 1421123413 35.5142
0716 1421124633 35.4284
0717 1421125854 35.8636
0718 1421127075 35.8008
0719 1421128295 35.9095
0720 1421129516 35.5078
0721 1421130737 35.1743
0722 1421131958 35.5449
0723 1421133178 35.6853
0724 1421134399 35.9610
0725 1421135620 36.0422
0726 1421136840 35.7890
0727 1421138061 35.8440
0728 1421139282 35.9559
0729 1421140502 35.7303
0730 1421141723 36.1999
0731 1421142944 36.2888
0732 1421144165 35.9609
0733 1421145385 35.4365
0734 1421146606 35.6428
0735 1421147827 36.1070
0736 1421149047 36.0038
0737 1421150268 36.2017
0738 1421151489 35.9984
0739 1421152709 35.7862
0740 1421153930 35.5033
0741 1421155151 35.8799
0742 1421156372 36.2205
0743 1421157592 36.2071
0744 1421158813 36.6124
0745 1421160034 36.4236
0746 1421161254 36.1565
0747 1421162475 36.1435
0748 1421163696 36.4496
0749 1421164916 35.9570
0750 1421166137 35.7456
0751 1421167358 36.2318
0752 1421168579 36.2994
0753 1421169799 36.4740
0754 1421171020 36.1473
0755 1421172241 36.3831
0756 1421173461 36.7129
0757 1421174682 36.8348
0758 1421175903 37.0125
0759 1421177124 36.6475
0760 1421178344 36.3732
0761 1421179565 37.1747
0762 1421180786 36.3671
0763 1421182006 36.2551
0764 1421183227 37.0267
0765 1421184448 37.0625
0766 1421185668 37.1961
0767 1421186889 36.8481
0768 1421188110 37.3600
0769 1421189331 36.7561
0770 1421190551 36.9131
0771 1421191772 37.2272
0772 1421192993 37.5298
0773 1421194213 37.2510
0774 1421195434 37.1394
0775 1421196655 37.7449
0776 1421197875 37.1273
0777 1421199096 37.2307
0778 1421200317 37.1859
0779 1421201538 36.9412
0780 1421202758 37.3535
0781 1421203979 38.5710
0782 1421205200 37.8869
0783 1421206420 37.5423
0784 1421207641 37.2175
0785 1421208862 37.3630
0786 1421210083 37.1410
0787 1421211303 37.6739
0788 1421212524 37.3176
0789 1421213745 36.9227
0790 1421214965 37.5669
0791 1421216186 37.4691
0792 1421217407 37.6204
0793 1421218627 37.7380
0794 1421219848 37.6487
0795 1421221069 37.7426
0796 1421222290 37.8220
0797 1421223510 37.1262
0798 1421224731 37.6876
0799 1421225952 37.9786
0800 1421227172 38.0356
0801 1421228393 37.6869
0802 1421229614 37.7805
0803 1421230834 38.0768
0804 1421232055 37.6344
0805 1421233276 37.8552
0806 1421234497 38.0936
0807 1421235717 38.5317
0808 1421236938 38.0655
0809 1421238159 38.7817
0810 1421239379 38.3201
0811 1421240600 37.7706
0812 1421241821 38.7968
0813 1421243041 38.3040
0814 1421244262 38.7296
0815 1421245483 37.9570
0816 1421246704 38.5574
0817 1421247924 38.1526
0818 1421249145 38.1270
0819 1421250366 38.0842
0820 1421251586 38.3910
0821 1421252807 38.1853
0822 1421254028 38.5462
0823 1421255249 38.4459
0824 1421256469 38.8142
0825 1421257690 39.0202
0826 1421258911 39.6285
0827 1421260131 38.9674
0828 1421261352 38.7169
0829 1421262573 38.5099
0830 1421263793 38.9364
0831 1421265014 39.4488
0832 1421266235 39.1161
0833 1421267456 39.0516
0834 1421268676 39.2111
0835 1421269897 39.2455
0836 1421271118 38.5867
0837 1421272338 39.1838
0838 1421273559 39.8784
0839 1421274780 39.5655
0840 1421276000 39.1469
0841 1421277221 38.9722
0842 1421278442 39.0529
0843 1421279663 39.2977
0844 1421280883 39.6346
0845 1421282104 39.2915
0846 1421283325 39.4983
0847 1421284545 39.8557
0848 1421285766 39.5859
0849 1421286987 39.6184
0850 1421288208 39.7507
0851 1421289428 39.5262
0852 1421290649 39.8093
0853 1421291870 39.1636
0854 1421293090 39.7770
0855 1421294311 39.5691
0856 1421295532 39.9125
0857 1421296752 40.1342
0858 1421297973 39.4535
0859 1421299194 40.1980
0860 1421300415 39.8548
0861 1421301635 39.5125
0862 1421302856 39.4799
0863 1421304077 39.7077
0864 1421305297 40.1958
0865 1421306518 39.9803
0866 1421307739 40.0170
0867 1421308959 39.5785
0868 1421310180 40.3615
0869 1421311401 40.2453
0870 1421312622 40.8036
0871 1421313842 39.7788
0872 1421315063 39.8320
0873 1421316284 40.5305
0874 1421317504 40.5616
0875 1421318725 40.6061
0876 1421319946 40.2941
0877 1421321166 40.0214
0878 1421322387 40.1843
0879 1421323608 40.1941
0880 1421324829 40.5546
0881 1421326049 40.7570
0882 1421327270 40.4996
0883 1421328491 40.9007
0884 1421329711 41.0955
0885 1421330932 40.5010
0886 1421332153 40.6655
0887 1421333374 40.7502
0888 1421334594 41.3987
0889 1421335815 41.3374
0890 1421337036 40.6145
0891 1421338256 40.8884
0892 1421339477 40.8467
0893 1421340698 40.7619
0894 1421341918 40.4885
0895 1421343139 41.1488
0896 1421344360 41.5117
0897 1421345581 41.0267
0898 1421346801 41.0039
0899 1421348022 41.4604
0900 1421349243 40.9444
0901 1421350463 41.1284
0902 1421351684 41.0626
0903 1421352905 41.3924
0904 1421354125 41.0688
0905 1421355346 40.9574
0906 1421356567 41.5408
0907 1421357788 41.8321
0908 1421359008 41.5740
0909 1421360229 41.6420
0910 1421361450 41.4463
0911 1421362670 41.8548
0912 1421363891 41.4140
0913 1421365112 41.5104
0914 1421366333 41.6481
0915 1421367553 41.8811
0916 1421368774 41.7819
0917 1421369995 41.9168
0918 1421371215 42.1584
0919 1421372436 41.6745
0920 1421373657 41.7983
0921 1421374877 41.8089
0922 1421376098 41.9032
0923 1421377319 42.1956
0924 1421378540 41.2649
0925 1421379760 41.8442
0926 1421380981 42.6639
0927 1421382202 41.9140
0928 1421383422 42.6354
0929 1421384643 41.9339
0930 1421385864 42.3129
0931 1421387084 42.0115
0932 1421388305 42.4278
0933 1421389526 42.0633
0934 1421390747 42.4594
0935 1421391967 42.1058
0936 1421393188 42.0655
0937 1421394409 42.0458
0938 1421395629 42.0818
0939 1421396850 42.4750
0940 1421398071 42.4344
0941 1421399291 42.6356
0942 1421400512 42.0461
0943 1421401733 42.6754
0944 1421402954 42.6181
0945 1421404174 42.4007
0946 1421405395 42.8239
0947 1421406616 42.5055
0948 1421407836 41.6533
0949 1421409057 41.9992
0950 1421410278 42.7171
0951 1421411499 42.8991
0952 1421412719 43.9386
0953 1421413940 42.7360
0954 1421415161 42.7367
0955 1421416381 42.1714
0956 1421417602 42.8117
0957 1421418823 43.1323
0958 1421420043 42.6054
0959 1421421264 42.5619
0960 1421422485 43.0874
0961 1421423706 43.0401
0962 1421424926 43.1258
0963 1421426147 42.8615
0964 1421427368 42.3997
0965 1421428588 42.6396
0966 1421429809 42.5176
0967 1421431030 43.1096
0968 1421432250 43.2426
0969 1421433471 43.4875
0970 1421434692 43.2102
0971 1421435913 43.2318
0972 1421437133 43.3346
0973 1421438354 43.1530
0974 1421439575 43.8682
0975 1421440795 43.3458
0976 1421442016 43.6623
0977 1421443237 43.5799
0978 1421444458 43.4280
0979 1421445678 44.2735
0980 1421446899 43.6640
0981 1421448120 43.8803
0982 1421449340 43.8770
0983 1421450561 43.2946
0984 1421451782 43.2373
0985 1421453002 43.4125
0986 1421454223 43.0731
0987 1421455444 43.4178
0988 1421456665 43.8182
0989 1421457885 43.3846
0990 1421459106 43.1221
0991 1421460327 43.6330
0992 1421461547 43.1703
0993 1421462768 43.3071
0994 1421463989 43.5086
0995 1421465209 43.3819
0996 1421466430 44.1000
0997 1421467651 44.1829
0998 1421468872 43.7986
0999 1421470092 43.3119
1000 1421471313 43.9754
1001 1421472534 43.9551
1002 1421473754 43.9193
1003 1421474975 43.7049
1004 1421476196 43.7713
1005 1421477416 44.2684
1006 1421478637 44.3998
1007 1421479858 44.7274
1008 1421481079 44.4757
1009 1421482299 44.3890
1010 1421483520 43.9238
1011 1421484741 43.8402
1012 1421485961 44.6883
1013 1421487182 44.7021
1014 1421488403 45.6034
1015 1421489624 45.0402
1016 1421490844 45.4735
1017 1421492065 45.6337
1018 1421493286 45.6231
1019 1421494506 46.2947
1020 1421495727 46.7346
1021 1421496948 48.0702
1022 1421498168 48.9103
1023 1421499389 50.1674
1024 1421500610 46.5785
1025 1421501831 50.0028
1026 1421503051 49.0857
1027 1421504272 47.8794
1028 1421505493 47.7364
1029 1421506713 46.9611
1030 1421507934 45.7084
1031 1421509155 45.4886
1032 1421510375 45.5637
1033 1421511596 45.6524
1034 1421512817 44.8222
1035 1421514038 45.0008
1036 1421515258 45.9454
1037 1421516479 44.8132
1038 1421517700 44.8773
1039 1421518920 44.6842
1040 1421520141 44.3929
1041 1421521362 44.0158
1042 1421522583 43.8734
1043 1421523803 44.3565
1044 1421525024 44.2762
1045 1421526245 43.9743
1046 1421527465 44.7890
1047 1421528686 44.1425
1048 1421529907 44.1531
1049 1421531127 43.8520
1050 1421532348 43.9815
1051 1421533569 43.7356
1052 1421534790 44.4246
1053 1421536010 44.2171
1054 1421537231 43.6814
1055 1421538452 44.1536
1056 1421539672 44.2192
1057 1421540893 44.1654
1058 1421542114 43.7124
1059 1421543334 44.0400
1060 1421544555 43.5075
1061 1421545776 43.4778
1062 1421546997 43.6553
1063 1421548217 44.2989
1064 1421549438 43.8976
1065 1421550659 43.7654
1066 1421551879 43.1385
1067 1421553100 42.7371
1068 1421554321 43.3533
1069 1421555541 43.0615
1070 1421556762 43.1386
1071 1421557983 43.1230
1072 1421559204 43.3647
1073 1421560424 42.4889
1074 1421561645 43.1660
1075 1421562866 43.4939
1076 1421564086 43.8774
1077 1421565307 43.4044
1078 1421566528 43.2232
1079 1421567749 43.4594
1080 1421568969 43.3593
1081 1421570190 43.3203
1082 1421571411 42.9117
1083 1421572631 43.2864
1084 1421573852 43.1414
1085 1421575073 43.3675
1086 1421576293 43.1653
1087 1421577514 43.2223
1088 1421578735 43.7052
1089 1421579956 43.2092
1090 1421581176 43.5392
1091 1421582397 42.5988
1092 1421583618 43.3904
1093 1421584838 42.5577
1094 1421586059 43.0578
1095 1421587280 42.6767
1096 1421588500 43.2451
1097 1421589721 43.3189
1098 1421590942 43.1411
1099 1421592163 42.9144
1100 1421593383 42.5132
1101 1421594604 42.5772
1102 1421595825 42.9958
1103 1421597045 43.1091
1104 1421598266 43.6284
1105 1421599487 43.8451
1106 1421600708 43.2388
1107 1421601928 42.6837
1108 1421603149 42.7451
1109 1421604370 42.2149
1110 1421605590 42.5266
1111 1421606811 42.1110
1112 1421608032 43.1902
1113 1421609252 42.7952
1114 1421610473 43.8916
1115 1421611694 42.4704
1116 1421612915 42.6940
1117 1421614135 42.8981
1118 1421615356 42.3190
1119 1421616577 42.2468
1120 1421617797 42.2977
1121 1421619018 42.4984
1122 1421620239 42.2778
1123 1421621459 42.6095
1124 1421622680 42.3778
1125 1421623901 42.0127
1126 1421625122 42.0789
1127 1421626342 42.1077
1128 1421627563 41.9747
1129 1421628784 42.2374
1130 1421630004 41.8594
1131 1421631225 41.9437
1132 1421632446 42.0357
1133 1421633666 42.3100
1134 1421634887 41.2701
1135 1421636108 41.8541
1136 1421637329 42.3993
1137 1421638549 42.0693
1138 1421639770 41.5057
1139 1421640991 41.5390
1140 1421642211 42.2601
1141 1421643432 41.6638
1142 1421644653 41.4950
1143 1421645874 42.2073
1144 1421647094 41.8937
1145 1421648315 41.5731
1146 1421649536 41.8623
1147 1421650756 41.6788
1148 1421651977 41.8844
1149 1421653198 42.0248
1150 1421654418 41.6150
1151 1421655639 41.2546
1152 1421656860 41.5283
1153 1421658081 41.4030
1154 1421659301 41.2628
1155 1421660522 41.9480
1156 1421661743 41.6920
1157 1421662963 40.8032
1158 1421664184 41.4062
1159 1421665405 40.9534
1160 1421666625 41.0253
1161 1421667846 41.5228
1162 1421669067 41.1883
1163 1421670288 41.1313
1164 1421671508 40.9858
1165 1421672729 41.3726
1166 1421673950 41.5247
1167 1421675170 41.1336
1168 1421676391 41.5690
1169 1421677612 41.4412
1170 1421678833 40.7656
1171 1421680053 40.8123
1172 1421681274 41.3615
1173 1421682495 40.6558
1174 1421683715 41.0622
1175 1421684936 40.4561
1176 1421686157 41.0888
1177 1421687377 40.7004
1178 1421688598 40.4401
1179 1421689819 40.5805
1180 1421691040 40.5084
1181 1421692260 40.5174
1182 1421693481 40.7643
1183 1421694702 41.2266
1184 1421695922 40.5788
1185 1421697143 41.0597
1186 1421698364 40.6776
1187 1421699584 40.7140
1188 1421700805 40.2586
1189 1421702026 41.0337
1190 1421703247 41.0609
1191 1421704467 40.5165
1192 1421705688 40.2290
1193 1421706909 39.7314
1194 1421708129 40.5419
1195 1421709350 40.4308
1196 1421710571 39.9788
1197 1421711791 40.8865
1198 1421713012 40.2008
1199 1421714233 40.1939
1200 1421715454 40.3438
1201 1421716674 39.9374
1202 1421717895 39.8239
1203 1421719116 39.9232
1204 1421720336 40.0855
1205 1421721557 39.3724
1206 1421722778 39.4151
1207 1421723999 39.6267
1208 1421725219 39.3740
1209 1421726440 39.5735
1210 1421727661 39.7666
1211 1421728881 39.5960
1212 1421730102 39.6984
1213 1421731323 40.0719
1214 1421732543 39.4965
1215 1421733764 39.7988
1216 1421734985 39.4617
1217 1421736206 39.4158
1218 1421737426 39.6710
1219 1421738647 39.0362
1220 1421739868 39.0000
1221 1421741088 39.5106
1222 1421742309 39.8578
1223 1421743530 39.8026
1224 1421744750 39.3902
1225 1421745971 40.0664
1226 1421747192 39.8145
1227 1421748413 39.0710
1228 1421749633 39.6303
1229 1421750854 39.4906
1230 1421752075 39.4036
1231 1421753295 39.1237
1232 1421754516 38.7732
1233 1421755737 39.0383
1234 1421756958 38.8927
1235 1421758178 38.5237
1236 1421759399 38.9513
1237 1421760620 38.9734
1238 1421761840 38.8958
1239 1421763061 38.7420
1240 1421764282 39.1558
1241 1421765502 38.6957
1242 1421766723 38.2054
1243 1421767944 38.5240
1244 1421769165 38.6071
1245 1421770385 38.0010
1246 1421771606 38.6373
1247 1421772827 38.6593
1248 1421774047 38.2470
1249 1421775268 39.0077
1250 1421776489 38.4349
1251 1421777709 38.2322
1252 1421778930 38.2736
1253 1421780151 38.8113
1254 1421781372 38.7841
1255 1421782592 38.4525
1256 1421783813 38.3782
1257 1421785034 38.0909
1258 1421786254 38.4289
1259 1421787475 38.6226
1260 1421788696 38.5149
1261 1421789916 38.3657
1262 1421791137 38.3589
1263 1421792358 38.0919
1264 1421793579 38.6005
1265 1421794799 37.8891
1266 1421796020 38.3743
1267 1421797241 38.1967
1268 1421798461 38.1754
1269 1421799682 37.7694
1270 1421800903 37.9344
1271 1421802124 37.4156
1272 1421803344 38.0557
1273 1421804565 38.2230
1274 1421805786 38.4906
1275 1421807006 47.8835
1276 1421808227 43.1173
1277 1421809448 38.0857
1278 1421810668 37.7979
1279 1421811889 37.2371
1280 1421813110 37.5160
1281 1421814331 37.8692
1282 1421815551 37.5109
1283 1421816772 37.4452
1284 1421817993 37.1683
1285 1421819213 37.4785
1286 1421820434 37.3771
1287 1421821655 37.4896
1288 1421822875 37.8275
1289 1421824096 37.4239
1290 1421825317 37.7878
1291 1421826538 37.6828
1292 1421827758 37.6231
1293 1421828979 37.5745
1294 1421830200 37.1439
1295 1421831420 37.1675
1296 1421832641 37.4392
1297 1421833862 36.8120
1298 1421835083 37.1785
1299 1421836303 37.3186
1300 1421837524 36.4447
1301 1421838745 36.8253
1302 1421839965 37.0259
1303 1421841186 37.1393
1304 1421842407 36.9099
1305 1421843627 37.1828
1306 1421844848 37.2592
1307 1421846069 36.8206
1308 1421847290 36.6126
1309 1421848510 36.7822
1310 1421849731 36.5714
1311 1421850952 37.2037
1312 1421852172 37.0937
1313 1421853393 37.5952
1314 1421854614 37.2428
1315 1421855834 36.7076
1316 1421857055 36.8549
1317 1421858276 37.1730
1318 1421859497 36.9546
1319 1421860717 37.2461
1320 1421861938 37.6772
1321 1421863159 36.6740
1322 1421864379 37.3817
1323 1421865600 37.4876
1324 1421866821 37.4635
1325 1421868041 38.2800
1326 1421869262 38.2506
1327 1421870483 37.5320
1328 1421871704 37.4477
1329 1421872924 36.7421
1330 1421874145 36.2600
1331 1421875366 36.6680
1332 1421876586 36.7499
1333 1421877807 36.7297
1334 1421879028 36.3297
1335 1421880249 36.7242
1336 1421881469 36.2570
1337 1421882690 36.9478
1338 1421883911 36.6405
1339 1421885131 36.5271
1340 1421886352 36.2188
1341 1421887573 36.5706
1342 1421888793 36.9606
1343 1421890014 36.4041
1344 1421891235 36.5611
1345 1421892456 36.3308
1346 1421893676 36.6667
1347 1421894897 35.6132
1348 1421896118 36.2701
1349 1421897338 36.3576
1350 1421898559 35.9414
1351 1421899780 35.7567
1352 1421901000 35.9224
1353 1421902221 36.8393
1354 1421903442 36.6339
1355 1421904663 36.0428
1356 1421905883 36.1630
1357 1421907104 36.1579
1358 1421908325 36.2711
1359 1421909545 36.1836
1360 1421910766 36.4115
1361 1421911987 36.1143
1362 1421913208 35.7315
1363 1421914428 36.7195
1364 1421915649 35.6839
1365 1421916870 36.1944
1366 1421918090 36.5744
1367 1421919311 36.5344
1368 1421920532 36.3963
1369 1421921752 35.8258
1370 1421922973 35.8147
1371 1421924194 35.9067
1372 1421925415 36.3130
1373 1421926635 35.6989
1374 1421927856 35.7316
1375 1421929077 35.8560
1376 1421930297 36.1938
1377 1421931518 36.0975
1378 1421932739 36.1799
1379 1421933959 36.3917
1380 1421935180 36.2271
1381 1421936401 36.3388
1382 1421937622 36.2228
1383 1421938842 36.2297
1384 1421940063 35.8270
1385 1421941284 36.7201
1386 1421942504 36.5572
1387 1421943725 36.5917
1388 1421944946 36.0316
1389 1421946166 36.3061
1390 1421947387 36.5845
1391 1421948608 35.8904
1392 1421949829 35.6753
1393 1421951049 36.7802
1394 1421952270 36.0028
1395 1421953491 36.4390
1396 1421954711 36.2640
1397 1421955932 36.7167
1398 1421957153 35.8781
1399 1421958374 35.9845
1400 1421959594 36.5579
1401 1421960815 36.2977
1402 1421962036 36.0917
1403 1421963256 36.5251
1404 1421964477 36.4645
1405 1421965698 36.2023
1406 1421966918 36.2146
1407 1421968139 35.8584
1408 1421969360 36.1174
1409 1421970581 35.7606
1410 1421971801 36.4422
1411 1421973022 37.0198
1412 1421974243 36.1798
1413 1421975463 36.2997
1414 1421976684 37.3688
1415 1421977905 37.4221
1416 1421979125 36.8615
1417 1421980346 36.2548
1418 1421981567 36.7464
1419 1421982788 36.3679
1420 1421984008 35.6074
1421 1421985229 36.5267
1422 1421986450 36.4851
1423 1421987670 36.6107
1424 1421988891 36.1838
1425 1421990112 35.8127
1426 1421991333 36.1287
1427 1421992553 36.3296
1428 1421993774 36.1943
1429 1421994995 36.6417
1430 1421996215 36.2277
1431 1421997436 36.1198
1432 1421998657 36.1116
1433 1421999877 36.1840
1434 1422001098 36.3495
1435 1422002319 36.7590
1436 1422003540 154.8888
1437 1422004760 552.8201
1438 1422005981 106.4010
1439 1422007202 36.7874
1440 1422008422 36.9413
1441 1422009643 36.8916
1442 1422010864 36.8904
1443 1422012084 36.4695
1444 1422013305 36.3415
1445 1422014526 36.6642
1446 1422015747 36.0741
1447 1422016967 36.2551
1448 1422018188 36.3137
1449 1422019409 36.4120
1450 1422020629 36.0775
1451 1422021850 36.3625
1452 1422023071 36.7025
1453 1422024291 35.9817
1454 1422025512 36.3928
1455 1422026733 36.5374
1456 1422027954 36.7941
1457 1422029174 36.3543
1458 1422030395 36.4728
1459 1422031616 36.8090
1460 1422032836 36.2378
1461 1422034057 36.1649
1462 1422035278 36.9762
1463 1422036499 36.4420
1464 1422037719 36.7269
1465 1422038940 36.3229
1466 1422040161 36.1458
1467 1422041381 36.0714
1468 1422042602 36.3815
1469 1422043823 36.5144
1470 1422045043 36.7649
1471 1422046264 36.9343
1472 1422047485 36.5380
1473 1422048706 36.2084
1474 1422049926 36.6523
1475 1422051147 36.4931
1476 1422052368 36.1073
1477 1422053588 36.6656
1478 1422054809 36.2285
1479 1422056030 36.0345
1480 1422057250 36.4602
1481 1422058471 36.4860
1482 1422059692 36.2361
1483 1422060913 36.1410
1484 1422062133 36.3750
1485 1422063354 36.0741
1486 1422064575 35.8340
1487 1422065795 36.0632
1488 1422067016 36.3938
1489 1422068237 36.4009
1490 1422069458 36.3333
1491 1422070678 36.7786
1492 1422071899 37.2416
1493 1422073120 36.4133
1494 1422074340 36.4392
1495 1422075561 36.4144
1496 1422076782 36.4240
1497 1422078002 36.2686
1498 1422079223 36.9868
1499 1422080444 36.8302
1500 1422081665 36.4646
1501 1422082885 36.5301
1502 1422084106 36.7090
1503 1422085327 36.6966
1504 1422086547 36.8265
1505 1422087768 36.8012
1506 1422088989 36.9661
1507 1422090209 36.3332
1508 1422091430 37.1699
1509 1422092651 36.3687
1510 1422093872 36.9888
1511 1422095092 36.5916
1512 1422096313 36.4786
1513 1422097534 36.1524
1514 1422098754 36.3275
1515 1422099975 36.4790
1516 1422101196 36.6131
1517 1422102416 36.6195
1518 1422103637 36.4735
1519 1422104858 36.7120
1520 1422106079 36.5734
1521 1422107299 36.2647
1522 1422108520 36.3734
1523 1422109741 37.2591
1524 1422110961 36.2776
1525 1422112182 36.6531
1526 1422113403 37.0441
1527 1422114624 36.5428
1528 1422115844 36.6881
1529 1422117065 36.4504
1530 1422118286 36.9097
1531 1422119506 37.0057
1532 1422120727 36.6087
1533 1422121948 37.1020
1534 1422123168 37.0221
1535 1422124389 36.4417
1536 1422125610 36.7058
1537 1422126831 36.7643
1538 1422128051 36.7081
1539 1422129272 36.2538
1540 1422130493 36.9333
1541 1422131713 37.0520
1542 1422132934 37.3043
1543 1422134155 37.3190
1544 1422135375 36.6286
1545 1422136596 37.1791
1546 1422137817 37.4591
1547 1422139038 36.9753
1548 1422140258 36.5329
1549 1422141479 36.6266
1550 1422142700 36.8415
1551 1422143920 37.3504
1552 1422145141 36.7820
1553 1422146362 36.5924
1554 1422147583 37.0482
1555 1422148803 36.3792
1556 1422150024 36.6754
1557 1422151245 36.9261
1558 1422152465 36.4061
1559 1422153686 36.2142
1560 1422154907 36.4238
1561 1422156127 36.8941
1562 1422157348 36.8242
1563 1422158569 37.0043
1564 1422159790 37.1118
1565 1422161010 36.9384
1566 1422162231 36.5210
1567 1422163452 36.8486
1568 1422164672 36.9678
1569 1422165893 37.2476
1570 1422167114 36.8096
1571 1422168334 37.2794
1572 1422169555 37.4198
1573 1422170776 36.7919
1574 1422171997 37.3587
1575 1422173217 36.8479
1576 1422174438 37.2045
1577 1422175659 36.9570
1578 1422176879 37.2707
1579 1422178100 36.9591
1580 1422179321 36.9590
1581 1422180541 37.0117
1582 1422181762 36.9782
1583 1422182983 37.0926
1584 1422184204 37.2077
1585 1422185424 36.8492
1586 1422186645 36.5682
1587 1422187866 36.6769
1588 1422189086 36.3218
1589 1422190307 36.7977
1590 1422191528 37.3489
1591 1422192749 36.4063
1592 1422193969 37.0370
1593 1422195190 37.0346
1594 1422196411 36.8658
1595 1422197631 37.3189
1596 1422198852 37.5828
1597 1422200073 38.0480
1598 1422201293 41.8106
1599 1422202514 43.6796
1600 1422203735 37.5052
1601 1422204956 37.4403
1602 1422206176 37.1305
1603 1422207397 36.9711
1604 1422208618 37.8423
1605 1422209838 37.0770
1606 1422211059 36.8186
1607 1422212280 36.7651
1608 1422213500 36.8722
1609 1422214721 37.1619
1610 1422215942 36.4009
1611 1422217163 36.9254
1612 1422218383 36.9823
1613 1422219604 36.5449
1614 1422220825 36.5672
1615 1422222045 36.8051
1616 1422223266 36.6685
1617 1422224487 36.9524
1618 1422225708 36.6771
1619 1422226928 36.6400
1620 1422228149 36.6727
1621 1422229370 37.0471
1622 1422230590 36.8883
1623 1422231811 36.8479
1624 1422233032 37.0349
1625 1422234252 36.6230
1626 1422235473 36.2796
1627 1422236694 36.5171
1628 1422237915 37.4902
1629 1422239135 36.4996
1630 1422240356 36.3960
1631 1422241577 37.1901
1632 1422242797 36.9898
1633 1422244018 36.6455
1634 1422245239 36.5467
1635 1422246459 36.5829
1636 1422247680 36.3079
1637 1422248901 36.4744
1638 1422250122 36.7123
1639 1422251342 36.6410
1640 1422252563 36.2899
1641 1422253784 36.1662
1642 1422255004 36.5050
1643 1422256225 36.1136
1644 1422257446 36.2999
1645 1422258666 36.1915
1646 1422259887 36.1207
1647 1422261108 36.2198
1648 1422262329 36.3122
1649 1422263549 36.4493
1650 1422264770 36.4572
1651 1422265991 36.5814
1652 1422267211 36.4511
1653 1422268432 36.0061
1654 1422269653 35.8038
1655 1422270874 36.0766
1656 1422272094 36.4789
1657 1422273315 36.4803
1658 1422274536 36.0003
1659 1422275756 35.9870
1660 1422276977 35.7252
1661 1422278198 36.2561
1662 1422279418 36.1020
1663 1422280639 35.6108
1664 1422281860 36.0323
1665 1422283081 36.0087
1666 1422284301 35.6480
1667 1422285522 35.4995
1668 1422286743 35.9034
1669 1422287963 35.3823
1670 1422289184 35.4750
1671 1422290405 35.5240
1672 1422291625 35.3269
1673 1422292846 35.4734
1674 1422294067 35.4896
1675 1422295288 35.3579
1676 1422296508 35.7781
1677 1422297729 35.4318
1678 1422298950 35.5546
1679 1422300170 35.3887
1680 1422301391 35.2724
1681 1422302612 35.1027
1682 1422303833 35.0998
1683 1422305053 34.8227
1684 1422306274 35.0934
1685 1422307495 35.2630
1686 1422308715 34.6071
1687 1422309936 35.0979
1688 1422311157 34.5520
1689 1422312377 35.0356
1690 1422313598 34.8218
1691 1422314819 34.5076
1692 1422316040 34.6912
1693 1422317260 34.8771
1694 1422318481 34.9247
1695 1422319702 34.6021
1696 1422320922 34.8205
1697 1422322143 35.1322
1698 1422323364 34.3737
1699 1422324584 34.4843
1700 1422325805 34.2993
1701 1422327026 34.0077
1702 1422328247 34.3465
1703 1422329467 33.8400
1704 1422330688 34.2119
1705 1422331909 34.0373
1706 1422333129 33.4490
1707 1422334350 33.7694
1708 1422335571 33.8297
1709 1422336791 33.3356
1710 1422338012 34.0108
1711 1422339233 33.5273
1712 1422340454 33.5856
1713 1422341674 34.0423
1714 1422342895 33.6444
1715 1422344116 33.3536
1716 1422345336 33.2513
1717 1422346557 33.2910
1718 1422347778 33.3289
1719 1422348999 33.4812
1720 1422350219 33.2803
1721 1422351440 32.7952
1722 1422352661 33.2855
1723 1422353881 33.2296
1724 1422355102 33.3823
1725 1422356323 33.1736
1726 1422357543 32.5771
1727 1422358764 32.8326
1728 1422359985 32.2845
1729 1422361206 32.5867
1730 1422362426 32.9921
1731 1422363647 32.8267
1732 1422364868 32.7507
1733 1422366088 32.2476
1734 1422367309 31.8752
1735 1422368530 32.2969
1736 1422369750 32.1881
1737 1422370971 32.3093
1738 1422372192 31.8178
1739 1422373413 31.9918
1740 1422374633 31.5621
1741 1422375854 31.7955
1742 1422377075 32.0144
1743 1422378295 32.1892
1744 1422379516 31.2714
1745 1422380737 31.5399
1746 1422381958 31.7487
1747 1422383178 31.5392
1748 1422384399 31.6007
1749 1422385620 31.2948
1750 1422386840 31.2357
1751 1422388061 30.9892
1752 1422389282 31.0901
1753 1422390502 31.1379
1754 1422391723 30.9142
1755 1422392944 31.0684
1756 1422394165 30.6490
1757 1422395385 30.6728
1758 1422396606 30.5995
1759 1422397827 31.0934
1760 1422399047 30.8718
1761 1422400268 30.9515
1762 1422401489 30.5209
1763 1422402709 29.8262
1764 1422403930 30.4301
1765 1422405151 30.2313
1766 1422406372 29.9205
1767 1422407592 29.6427
1768 1422408813 29.9921
1769 1422410034 30.1232
1770 1422411254 29.9672
1771 1422412475 29.2876
1772 1422413696 29.1682
1773 1422414916 29.3331
1774 1422416137 29.0918
1775 1422417358 29.1185
1776 1422418579 28.8934
1777 1422419799 28.7679
1778 1422421020 28.5350
1779 1422422241 28.7100
1780 1422423461 28.7140
1781 1422424682 28.4037
1782 1422425903 28.4831
1783 1422427124 28.1775
1784 1422428344 28.2980
1785 1422429565 28.1225
1786 1422430786 28.0398
1787 1422432006 28.2515
1788 1422433227 27.8238
1789 1422434448 28.0295
1790 1422435668 27.6433
1791 1422436889 27.3796
1792 1422438110 27.5245
1793 1422439331 27.3607
1794 1422440551 27.6626
1795 1422441772 27.4005
1796 1422442993 27.0221
1797 1422444213 26.8075
1798 1422445434 26.9907
1799 1422446655 26.5033
1800 1422447875 26.6321
1801 1422449096 26.6086
1802 1422450317 26.7479
1803 1422451538 26.2409
1804 1422452758 26.6061
1805 1422453979 26.5204
1806 1422455200 26.2636
1807 1422456420 25.9392
1808 1422457641 25.7013
1809 1422458862 26.0568
1810 1422460083 25.8670
1811 1422461303 25.4121
1812 1422462524 25.4656
1813 1422463745 25.5649
1814 1422464965 25.3351
1815 1422466186 25.2712
1816 1422467407 24.8239
1817 1422468627 25.3676
1818 1422469848 25.0050
1819 1422471069 24.7462
1820 1422472290 24.9299
1821 1422473510 24.3515
1822 1422474731 24.4606
1823 1422475952 24.4672
1824 1422477172 24.5225
1825 1422478393 24.1943
1826 1422479614 24.2415
1827 1422480834 23.5550
1828 1422482055 23.7472
1829 1422483276 24.0057
1830 1422484497 23.6138
1831 1422485717 23.7038
1832 1422486938 23.6006
1833 1422488159 22.9011
1834 1422489379 23.3667
1835 1422490600 23.5849
1836 1422491821 23.1386
1837 1422493041 23.1816
1838 1422494262 22.9686
1839 1422495483 22.5424
1840 1422496704 22.6090
1841 1422497924 22.5040
1842 1422499145 22.7630
1843 1422500366 22.4029
1844 1422501586 21.9087
1845 1422502807 22.0819
1846 1422504028 22.3379
1847 1422505249 22.1207
1848 1422506469 21.8412
1849 1422507690 21.7501
1850 1422508911 21.6384
1851 1422510131 21.7169
1852 1422511352 21.2710
1853 1422512573 21.1876
1854 1422513793 21.1352
1855 1422515014 20.9700
1856 1422516235 20.6595
1857 1422517456 20.6530
1858 1422518676 20.7441
1859 1422519897 20.4906
1860 1422521118 20.1493
1861 1422522338 20.1783
1862 1422523559 20.1228
1863 1422524780 20.1275
1864 1422526000 20.1724
1865 1422527221 20.0735
1866 1422528442 19.9235
1867 1422529663 19.6242
1868 1422530883 19.5559
1869 1422532104 19.6049
1870 1422533325 19.3394
1871 1422534545 19.4987
1872 1422535766 19.4823
1873 1422536987 18.8528
1874 1422538208 19.0358
1875 1422539428 19.0994
1876 1422540649 18.8316
1877 1422541870 18.8700
1878 1422543090 18.7589
1879 1422544311 18.4996
1880 1422545532 18.3810
1881 1422546752 18.3586
1882 1422547973 18.0808
1883 1422549194 18.0894
1884 1422550415 17.9452
1885 1422551635 17.9642
1886 1422552856 17.8177
1887 1422554077 17.5576
1888 1422555297 17.3387
1889 1422556518 17.6043
1890 1422557739 17.3933
1891 1422558959 17.3383
1892 1422560180 17.1444
1893 1422561401 17.1735
1894 1422562622 16.9367
1895 1422563842 16.7772
1896 1422565063 16.9138
1897 1422566284 16.6529
1898 1422567504 16.5018
1899 1422568725 16.3187
1900 1422569946 16.3196
1901 1422571166 16.3888
1902 1422572387 16.2604
1903 1422573608 16.1413
1904 1422574829 15.8686
1905 1422576049 15.9234
1906 1422577270 15.7401
1907 1422578491 15.7279
1908 1422579711 15.4187
1909 1422580932 15.3960
1910 1422582153 15.3225
1911 1422583374 15.4441
1912 1422584594 15.1041
1913 1422585815 15.0873
1914 1422587036 15.0896
1915 1422588256 15.0174
1916 1422589477 14.6430
1917 1422590698 14.8827
1918 1422591918 14.5965
1919 1422593139 14.5609
1920 1422594360 14.3809
1921 1422595581 14.3504
1922 1422596801 14.3790
1923 1422598022 14.1212
1924 1422599243 13.9412
1925 1422600463 13.9269
1926 1422601684 13.7410
1927 1422602905 13.8205
1928 1422604125 13.6814
1929 1422605346 13.5774
1930 1422606567 13.7034
1931 1422607788 13.5540
1932 1422609008 13.2315
1933 1422610229 13.1408
1934 1422611450 13.0724
1935 1422612670 13.2436
1936 1422613891 12.8632
1937 1422615112 13.1151
1938 1422616333 13.0036
1939 1422617553 12.7506
1940 1422618774 12.5327
1941 1422619995 12.5717
1942 1422621215 12.4768
1943 1422622436 12.3239
1944 1422623657 12.2047
1945 1422624877 12.1322
1946 1422626098 12.1687
1947 1422627319 12.2107
1948 1422628540 11.9608
1949 1422629760 11.9930
1950 1422630981 11.9630
1951 1422632202 11.7866
1952 1422633422 11.6209
1953 1422634643 11.6412
1954 1422635864 11.5816
1955 1422637084 11.4342
1956 1422638305 11.4536
1957 1422639526 11.4529
1958 1422640747 11.1408
1959 1422641967 11.1814
1960 1422643188 11.0919
1961 1422644409 10.9547
1962 1422645629 10.9872
1963 1422646850 11.0689
1964 1422648071 10.8025
1965 1422649291 10.7383
1966 1422650512 10.5703
1967 1422651733 10.6213
1968 1422652954 10.4423
1969 1422654174 10.5202
1970 1422655395 10.3680
1971 1422656616 10.3633
1972 1422657836 10.2492
1973 1422659057 10.1323
1974 1422660278 10.2863
1975 1422661499 10.0649
1976 1422662719 10.0556
1977 1422663940 9.9156
1978 1422665161 9.7338
1979 1422666381 9.7999
1980 1422667602 9.8343
1981 1422668823 9.6511
1982 1422670043 9.6812
1983 1422671264 9.6103
1984 1422672485 9.6527
1985 1422673706 9.5393
1986 1422674926 9.4172
1987 1422676147 9.4631
1988 1422677368 9.3761
1989 1422678588 9.3336
1990 1422679809 9.2549
1991 1422681030 9.1679
1992 1422682250 9.0262
1993 1422683471 9.1233
1994 1422684692 8.9901
1995 1422685913 9.0948
1996 1422687133 8.9808
1997 1422688354 8.9927
1998 1422689575 8.9353
1999 1422690795 8.8826
2000 1422692016 8.8173
2001 1422693237 8.8170
2002 1422694458 8.7033
2003 1422695678 8.5953
2004 1422696899 8.5807
2005 1422698120 8.4601
2006 1422699340 8.6041
2007 1422700561 8.8887
2008 1422701782 8.5025
2009 1422703002 8.5561
2010 1422704223 8.3939
2011 1422705444 8.3744
2012 1422706665 8.2928
2013 1422707885 8.1822
2014 1422709106 8.2428
2015 1422710327 8.1346
2016 1422711547 8.0742
2017 1422712768 8.0795
2018 1422713989 8.0316
2019 1422715209 8.1189
2020 1422716430 8.0155
2021 1422717651 8.0040
2022 1422718872 8.1178
2023 1422720092 8.0077
2024 1422721313 8.0448
2025 1422722534 8.0248
2026 1422723754 7.9104
2027 1422724975 7.8276
2028 1422726196 7.7998
2029 1422727416 7.9190
2030 1422728637 7.9104
2031 1422729858 7.9194
2032 1422731079 7.8615
2033 1422732299 7.7870
2034 1422733520 7.8685
2035 1422734741 7.7878
2036 1422735961 7.7323
2037 1422737182 7.6704
2038 1422738403 7.8118
2039 1422739624 7.7037
2040 1422740844 7.7031
2041 1422742065 7.7615
2042 1422743286 7.7437
2043 1422744506 7.7767
2044 1422745727 7.7656
2045 1422746948 7.7253
2046 1422748168 7.7362
2047 1422749389 8.0150
