# File: 20-06-07T200231.ast
# NOTEA     = None Attached.  RTLSDR Dongle Test
# NOTEB     = Spectral Integration
# OBSERVER  = Science Aficionado
# DEVICE    = rtl=0,bias=1
# DATADIR   = ../data/
# SITE      = None Attached.  RTLSDR Dongle Test
# CITY      = Seattle
# REGION    = Washington
# COUNTRY   = US
# TELTYPE   = UW CSE 490W Dish
# FRAME     = TOPO
# GAIN1     = 49.0
# GAIN2     = 11.0
# GAIN3     = 11.0
# GAIN4     = 0.0
# Count     = 2500
# CenterFreq= 1421500000.0
# Bandwidth = 2500000.0
# Duration  = 41.950286
# DeltaX    = 5859.375
# TSYS      = 200.0
# TRX       = 100.0
# TRMS      = 2.0
# TINT      = 1.0
# KPERC     = 100.0
# GAINFACT  = 1.0
# BUNIT     = Counts
# NCHAN     = 2048
# NSPEC     = 1
# NTIME     = 0
# NSAMPLES  = 0
# EPEAK     = 4.10875183718
# ERMS      = 0.995973393526
# EMJD      = 58568.808999981004 
# REFCHAN   = 1024.0
# REFSAMPL  = 256.0
# NAVE      = 50
# NMEDIAN   = 1024
# Fft_rate  = 5000
# UTC       = 2020-06-07 20:02:31.568920
# SECONDS   =       0.0000000000 
# LST       = 09:18:28.370
# AZ        = 180.0
# EL        = 90.0
# TELLON    = -57:41:09.900
# TELLAT    = +47:39:13.800
# RA        = 09:15:45.880
# DEC       = +47:49:17.600
# GALLON    = 171:29:01.10
# GALLAT    = +43:37:04.20
# ALT_SUN   = +34:33:46.3
# AZ_SUN    = +266:49:25.2
# ETAA      = 0.8
# ETAB      = 0.99
# POLANGLE  = 0.0
# TELSIZEAM = 1.0
# TELSIZEBM = 1.0
# AST_VERS  = 05.01
0000 1420250610 7.7252
0001 1420251831 7.6234
0002 1420253051 7.5937
0003 1420254272 7.6160
0004 1420255493 7.5377
0005 1420256713 7.5966
0006 1420257934 7.5078
0007 1420259155 7.4859
0008 1420260375 7.4871
0009 1420261596 7.4599
0010 1420262817 7.5901
0011 1420264038 7.5900
0012 1420265258 7.6725
0013 1420266479 7.6883
0014 1420267700 7.5723
0015 1420268920 7.6430
0016 1420270141 7.7220
0017 1420271362 7.6923
0018 1420272583 7.7543
0019 1420273803 7.6558
0020 1420275024 7.6387
0021 1420276245 7.8113
0022 1420277465 7.7062
0023 1420278686 7.8006
0024 1420279907 7.8218
0025 1420281127 7.8212
0026 1420282348 7.9428
0027 1420283569 7.9797
0028 1420284790 7.9829
0029 1420286010 7.9403
0030 1420287231 8.1079
0031 1420288452 8.0501
0032 1420289672 8.0801
0033 1420290893 8.0931
0034 1420292114 8.1941
0035 1420293334 8.1208
0036 1420294555 8.2829
0037 1420295776 8.2109
0038 1420296997 8.2303
0039 1420298217 8.3547
0040 1420299438 8.4625
0041 1420300659 8.7717
0042 1420301879 8.5341
0043 1420303100 8.4213
0044 1420304321 8.5661
0045 1420305541 8.5175
0046 1420306762 8.5322
0047 1420307983 8.7103
0048 1420309204 8.6900
0049 1420310424 8.7815
0050 1420311645 8.7873
0051 1420312866 8.8844
0052 1420314086 8.8401
0053 1420315307 8.8367
0054 1420316528 9.0026
0055 1420317749 9.0330
0056 1420318969 9.1640
0057 1420320190 9.1658
0058 1420321411 9.0582
0059 1420322631 9.1228
0060 1420323852 9.2899
0061 1420325073 9.3217
0062 1420326293 9.4026
0063 1420327514 9.5056
0064 1420328735 9.4160
0065 1420329956 9.5976
0066 1420331176 9.6016
0067 1420332397 9.6706
0068 1420333618 9.7364
0069 1420334838 9.5883
0070 1420336059 9.7996
0071 1420337280 9.8453
0072 1420338500 9.9070
0073 1420339721 10.0106
0074 1420340942 10.1264
0075 1420342163 10.0402
0076 1420343383 9.9638
0077 1420344604 10.0942
0078 1420345825 10.0520
0079 1420347045 10.2224
0080 1420348266 10.2507
0081 1420349487 10.3626
0082 1420350708 10.3914
0083 1420351928 10.4375
0084 1420353149 10.4705
0085 1420354370 10.3669
0086 1420355590 10.5968
0087 1420356811 10.8520
0088 1420358032 10.9503
0089 1420359252 10.7836
0090 1420360473 10.8898
0091 1420361694 10.9371
0092 1420362915 11.0864
0093 1420364135 11.0319
0094 1420365356 11.1057
0095 1420366577 11.1825
0096 1420367797 11.2477
0097 1420369018 11.4109
0098 1420370239 11.3681
0099 1420371459 11.5186
0100 1420372680 11.5693
0101 1420373901 11.6694
0102 1420375122 11.5377
0103 1420376342 11.7889
0104 1420377563 11.8278
0105 1420378784 11.8522
0106 1420380004 11.9862
0107 1420381225 12.0152
0108 1420382446 11.9950
0109 1420383666 12.2741
0110 1420384887 12.0367
0111 1420386108 12.3104
0112 1420387329 12.3272
0113 1420388549 12.3951
0114 1420389770 12.4856
0115 1420390991 12.6246
0116 1420392211 12.7880
0117 1420393432 12.9255
0118 1420394653 12.8703
0119 1420395874 12.9600
0120 1420397094 12.8859
0121 1420398315 13.0476
0122 1420399536 13.2495
0123 1420400756 13.2545
0124 1420401977 13.3539
0125 1420403198 13.2856
0126 1420404418 13.6391
0127 1420405639 13.6831
0128 1420406860 13.5697
0129 1420408081 13.8053
0130 1420409301 13.7289
0131 1420410522 13.8723
0132 1420411743 14.0282
0133 1420412963 14.0834
0134 1420414184 14.0773
0135 1420415405 14.3528
0136 1420416625 14.8238
0137 1420417846 14.3754
0138 1420419067 14.4254
0139 1420420288 14.5958
0140 1420421508 14.7524
0141 1420422729 14.8333
0142 1420423950 14.7599
0143 1420425170 14.7004
0144 1420426391 14.8996
0145 1420427612 15.2354
0146 1420428833 15.3248
0147 1420430053 15.2390
0148 1420431274 15.4249
0149 1420432495 15.5899
0150 1420433715 15.4908
0151 1420434936 15.6708
0152 1420436157 15.6128
0153 1420437377 15.7694
0154 1420438598 15.9325
0155 1420439819 16.1364
0156 1420441040 16.0348
0157 1420442260 16.2679
0158 1420443481 16.1904
0159 1420444702 16.8423
0160 1420445922 16.3355
0161 1420447143 16.5947
0162 1420448364 16.6234
0163 1420449584 16.6705
0164 1420450805 16.6660
0165 1420452026 16.8318
0166 1420453247 17.2116
0167 1420454467 16.9287
0168 1420455688 17.1284
0169 1420456909 17.2941
0170 1420458129 17.4114
0171 1420459350 17.5317
0172 1420460571 17.7557
0173 1420461791 17.7630
0174 1420463012 17.6522
0175 1420464233 18.0120
0176 1420465454 17.8131
0177 1420466674 18.1754
0178 1420467895 18.0897
0179 1420469116 18.2596
0180 1420470336 18.1749
0181 1420471557 18.6712
0182 1420472778 18.9614
0183 1420473999 18.8032
0184 1420475219 18.7908
0185 1420476440 18.5862
0186 1420477661 18.8454
0187 1420478881 18.9955
0188 1420480102 19.2426
0189 1420481323 19.2654
0190 1420482543 19.2166
0191 1420483764 19.4452
0192 1420484985 19.5840
0193 1420486206 19.7280
0194 1420487426 19.9138
0195 1420488647 19.8870
0196 1420489868 20.0248
0197 1420491088 20.0049
0198 1420492309 20.1058
0199 1420493530 20.2447
0200 1420494750 20.2542
0201 1420495971 20.4833
0202 1420497192 20.2964
0203 1420498413 21.1605
0204 1420499633 22.1893
0205 1420500854 20.9889
0206 1420502075 20.8427
0207 1420503295 20.9430
0208 1420504516 21.0655
0209 1420505737 21.3947
0210 1420506958 21.3413
0211 1420508178 21.4112
0212 1420509399 21.3880
0213 1420510620 21.4683
0214 1420511840 21.6040
0215 1420513061 21.7021
0216 1420514282 21.9226
0217 1420515502 22.0368
0218 1420516723 22.1260
0219 1420517944 22.0890
0220 1420519165 22.1342
0221 1420520385 22.2026
0222 1420521606 22.4001
0223 1420522827 22.5729
0224 1420524047 22.5673
0225 1420525268 22.4935
0226 1420526489 22.6447
0227 1420527709 22.9605
0228 1420528930 23.1681
0229 1420530151 22.9257
0230 1420531372 23.2302
0231 1420532592 23.0767
0232 1420533813 22.9298
0233 1420535034 23.3883
0234 1420536254 23.5666
0235 1420537475 23.3068
0236 1420538696 23.5387
0237 1420539916 23.6917
0238 1420541137 23.9137
0239 1420542358 23.8743
0240 1420543579 24.0026
0241 1420544799 23.9037
0242 1420546020 23.8497
0243 1420547241 24.0839
0244 1420548461 24.2392
0245 1420549682 24.5499
0246 1420550903 24.8047
0247 1420552124 25.0641
0248 1420553344 24.4804
0249 1420554565 24.6893
0250 1420555786 25.0964
0251 1420557006 25.0798
0252 1420558227 25.0406
0253 1420559448 25.4420
0254 1420560668 25.6416
0255 1420561889 25.8428
0256 1420563110 25.4718
0257 1420564331 25.5881
0258 1420565551 25.4152
0259 1420566772 25.5116
0260 1420567993 25.8451
0261 1420569213 26.0502
0262 1420570434 26.2541
0263 1420571655 25.9861
0264 1420572875 25.9726
0265 1420574096 25.9576
0266 1420575317 26.1763
0267 1420576538 26.4782
0268 1420577758 26.3639
0269 1420578979 26.3320
0270 1420580200 26.9844
0271 1420581420 26.4446
0272 1420582641 26.7618
0273 1420583862 27.0614
0274 1420585083 27.0578
0275 1420586303 27.0334
0276 1420587524 27.1461
0277 1420588745 27.7094
0278 1420589965 26.8363
0279 1420591186 27.5164
0280 1420592407 27.2989
0281 1420593627 27.2656
0282 1420594848 27.5458
0283 1420596069 27.7962
0284 1420597290 27.7480
0285 1420598510 27.5362
0286 1420599731 27.5395
0287 1420600952 28.1867
0288 1420602172 28.4140
0289 1420603393 28.0166
0290 1420604614 28.1531
0291 1420605834 28.4968
0292 1420607055 29.0511
0293 1420608276 28.7276
0294 1420609497 28.8468
0295 1420610717 29.0126
0296 1420611938 28.9107
0297 1420613159 28.7108
0298 1420614379 28.9891
0299 1420615600 29.4355
0300 1420616821 29.0295
0301 1420618041 28.9083
0302 1420619262 29.1446
0303 1420620483 28.9962
0304 1420621704 29.3479
0305 1420622924 29.3887
0306 1420624145 29.4552
0307 1420625366 29.4263
0308 1420626586 28.9285
0309 1420627807 28.9604
0310 1420629028 29.6938
0311 1420630249 29.8891
0312 1420631469 29.9075
0313 1420632690 30.0417
0314 1420633911 30.6482
0315 1420635131 32.6405
0316 1420636352 30.6217
0317 1420637573 30.2930
0318 1420638793 30.1296
0319 1420640014 30.6503
0320 1420641235 30.3049
0321 1420642456 30.4022
0322 1420643676 30.1603
0323 1420644897 30.4537
0324 1420646118 30.5395
0325 1420647338 30.6303
0326 1420648559 30.9470
0327 1420649780 30.3934
0328 1420651000 30.6095
0329 1420652221 31.1207
0330 1420653442 30.7591
0331 1420654663 30.7329
0332 1420655883 30.9665
0333 1420657104 31.1364
0334 1420658325 30.8767
0335 1420659545 31.6782
0336 1420660766 31.5260
0337 1420661987 31.2582
0338 1420663208 31.2692
0339 1420664428 31.6535
0340 1420665649 32.2152
0341 1420666870 31.7310
0342 1420668090 31.6296
0343 1420669311 31.6580
0344 1420670532 31.8682
0345 1420671752 31.8033
0346 1420672973 31.6120
0347 1420674194 31.8823
0348 1420675415 32.0707
0349 1420676635 31.8760
0350 1420677856 31.7611
0351 1420679077 31.5786
0352 1420680297 31.9112
0353 1420681518 31.8275
0354 1420682739 32.1181
0355 1420683959 32.2304
0356 1420685180 32.3039
0357 1420686401 32.2042
0358 1420687622 32.4205
0359 1420688842 32.3057
0360 1420690063 32.2084
0361 1420691284 32.0412
0362 1420692504 32.1727
0363 1420693725 32.6565
0364 1420694946 32.8650
0365 1420696166 32.4954
0366 1420697387 32.7372
0367 1420698608 32.2749
0368 1420699829 32.7084
0369 1420701049 32.6949
0370 1420702270 32.9020
0371 1420703491 32.6195
0372 1420704711 32.7954
0373 1420705932 32.6075
0374 1420707153 32.7855
0375 1420708374 33.3497
0376 1420709594 33.3244
0377 1420710815 32.7527
0378 1420712036 33.0234
0379 1420713256 32.9985
0380 1420714477 32.7878
0381 1420715698 32.8465
0382 1420716918 33.3608
0383 1420718139 32.8648
0384 1420719360 33.2883
0385 1420720581 33.1290
0386 1420721801 33.4137
0387 1420723022 33.4221
0388 1420724243 33.1965
0389 1420725463 33.6409
0390 1420726684 33.4011
0391 1420727905 33.1831
0392 1420729125 33.3168
0393 1420730346 33.6035
0394 1420731567 33.6654
0395 1420732788 34.0069
0396 1420734008 33.8770
0397 1420735229 33.7089
0398 1420736450 33.9233
0399 1420737670 33.4608
0400 1420738891 33.9891
0401 1420740112 33.7378
0402 1420741333 33.6073
0403 1420742553 33.5712
0404 1420743774 33.5930
0405 1420744995 34.2879
0406 1420746215 33.7763
0407 1420747436 34.1230
0408 1420748657 34.1402
0409 1420749877 33.8015
0410 1420751098 34.0901
0411 1420752319 33.8670
0412 1420753540 34.0283
0413 1420754760 34.3371
0414 1420755981 34.4034
0415 1420757202 34.3365
0416 1420758422 33.8451
0417 1420759643 34.2944
0418 1420760864 33.4580
0419 1420762084 33.4808
0420 1420763305 33.6769
0421 1420764526 33.8863
0422 1420765747 34.3150
0423 1420766967 34.2494
0424 1420768188 34.2528
0425 1420769409 34.5223
0426 1420770629 35.0827
0427 1420771850 34.2251
0428 1420773071 33.9535
0429 1420774291 34.3003
0430 1420775512 33.3769
0431 1420776733 34.3562
0432 1420777954 34.4931
0433 1420779174 34.1831
0434 1420780395 34.3414
0435 1420781616 34.8036
0436 1420782836 34.4720
0437 1420784057 34.6717
0438 1420785278 34.2786
0439 1420786499 34.3821
0440 1420787719 34.3697
0441 1420788940 34.7720
0442 1420790161 34.5309
0443 1420791381 34.3448
0444 1420792602 34.4079
0445 1420793823 34.4222
0446 1420795043 34.4308
0447 1420796264 34.4866
0448 1420797485 34.5579
0449 1420798706 34.5779
0450 1420799926 36.5027
0451 1420801147 36.6803
0452 1420802368 34.4829
0453 1420803588 34.9504
0454 1420804809 42.4265
0455 1420806030 38.8607
0456 1420807250 34.8075
0457 1420808471 34.7014
0458 1420809692 34.6672
0459 1420810913 34.3589
0460 1420812133 34.8948
0461 1420813354 34.4420
0462 1420814575 34.6417
0463 1420815795 34.6994
0464 1420817016 34.3626
0465 1420818237 34.1482
0466 1420819458 34.9278
0467 1420820678 35.0177
0468 1420821899 34.9298
0469 1420823120 34.5742
0470 1420824340 34.7585
0471 1420825561 34.4512
0472 1420826782 34.4461
0473 1420828002 34.8494
0474 1420829223 35.0686
0475 1420830444 34.6378
0476 1420831665 34.8106
0477 1420832885 34.5445
0478 1420834106 34.6164
0479 1420835327 35.1303
0480 1420836547 34.8129
0481 1420837768 34.5189
0482 1420838989 34.5586
0483 1420840209 34.5088
0484 1420841430 34.2736
0485 1420842651 34.3765
0486 1420843872 34.8409
0487 1420845092 34.7722
0488 1420846313 34.5367
0489 1420847534 34.5119
0490 1420848754 34.7798
0491 1420849975 34.3731
0492 1420851196 34.4907
0493 1420852416 34.3577
0494 1420853637 34.5369
0495 1420854858 34.3486
0496 1420856079 34.8754
0497 1420857299 35.0193
0498 1420858520 34.8460
0499 1420859741 34.5668
0500 1420860961 34.6658
0501 1420862182 34.7547
0502 1420863403 35.5183
0503 1420864624 34.7919
0504 1420865844 34.2235
0505 1420867065 34.8096
0506 1420868286 34.9373
0507 1420869506 34.4219
0508 1420870727 34.0628
0509 1420871948 34.2367
0510 1420873168 34.2871
0511 1420874389 34.1974
0512 1420875610 34.4681
0513 1420876831 34.4886
0514 1420878051 34.3248
0515 1420879272 34.7219
0516 1420880493 34.5700
0517 1420881713 34.3326
0518 1420882934 34.1862
0519 1420884155 34.2313
0520 1420885375 34.3250
0521 1420886596 34.7721
0522 1420887817 34.5323
0523 1420889038 34.6526
0524 1420890258 34.6616
0525 1420891479 34.2245
0526 1420892700 34.4672
0527 1420893920 34.3440
0528 1420895141 34.4164
0529 1420896362 34.3037
0530 1420897583 34.7828
0531 1420898803 34.5809
0532 1420900024 34.1904
0533 1420901245 34.2663
0534 1420902465 34.6111
0535 1420903686 34.6096
0536 1420904907 34.3292
0537 1420906127 34.4528
0538 1420907348 34.1582
0539 1420908569 34.1925
0540 1420909790 34.6035
0541 1420911010 34.2939
0542 1420912231 34.1944
0543 1420913452 34.5007
0544 1420914672 33.7392
0545 1420915893 34.2509
0546 1420917114 33.9263
0547 1420918334 33.9883
0548 1420919555 34.0682
0549 1420920776 33.9981
0550 1420921997 34.3841
0551 1420923217 33.8880
0552 1420924438 34.3901
0553 1420925659 34.0177
0554 1420926879 34.1985
0555 1420928100 33.9724
0556 1420929321 33.7517
0557 1420930541 33.9938
0558 1420931762 33.8808
0559 1420932983 34.5372
0560 1420934204 33.8313
0561 1420935424 34.1974
0562 1420936645 34.3182
0563 1420937866 34.0518
0564 1420939086 34.3679
0565 1420940307 34.5392
0566 1420941528 34.0121
0567 1420942749 33.9096
0568 1420943969 34.5962
0569 1420945190 33.9596
0570 1420946411 34.4218
0571 1420947631 34.1102
0572 1420948852 34.3866
0573 1420950073 33.6312
0574 1420951293 34.5013
0575 1420952514 34.4891
0576 1420953735 34.3406
0577 1420954956 34.0842
0578 1420956176 34.2329
0579 1420957397 33.9110
0580 1420958618 33.7645
0581 1420959838 34.1735
0582 1420961059 34.2422
0583 1420962280 33.7180
0584 1420963500 34.2116
0585 1420964721 34.0269
0586 1420965942 33.6832
0587 1420967163 33.6635
0588 1420968383 33.8374
0589 1420969604 33.9516
0590 1420970825 34.0106
0591 1420972045 33.4844
0592 1420973266 34.0703
0593 1420974487 34.0964
0594 1420975708 33.8416
0595 1420976928 33.2921
0596 1420978149 34.2234
0597 1420979370 33.8681
0598 1420980590 34.2086
0599 1420981811 34.2933
0600 1420983032 33.7262
0601 1420984252 34.1882
0602 1420985473 34.3922
0603 1420986694 34.6297
0604 1420987915 33.4929
0605 1420989135 33.7723
0606 1420990356 33.9613
0607 1420991577 33.8293
0608 1420992797 33.9100
0609 1420994018 34.2671
0610 1420995239 34.7408
0611 1420996459 34.5980
0612 1420997680 33.9384
0613 1420998901 33.7214
0614 1421000122 33.9169
0615 1421001342 33.9003
0616 1421002563 34.1299
0617 1421003784 34.0639
0618 1421005004 34.3662
0619 1421006225 34.1585
0620 1421007446 33.6632
0621 1421008666 33.9378
0622 1421009887 34.0279
0623 1421011108 34.2167
0624 1421012329 33.7440
0625 1421013549 33.9034
0626 1421014770 33.7716
0627 1421015991 34.1487
0628 1421017211 34.1803
0629 1421018432 33.9843
0630 1421019653 33.8464
0631 1421020874 34.2347
0632 1421022094 34.0386
0633 1421023315 34.4705
0634 1421024536 34.1955
0635 1421025756 33.9082
0636 1421026977 33.6802
0637 1421028198 33.9649
0638 1421029418 34.4891
0639 1421030639 34.1743
0640 1421031860 34.2166
0641 1421033081 34.0093
0642 1421034301 34.3441
0643 1421035522 34.3542
0644 1421036743 33.9853
0645 1421037963 33.8624
0646 1421039184 34.1523
0647 1421040405 34.0240
0648 1421041625 34.5764
0649 1421042846 33.9281
0650 1421044067 33.8631
0651 1421045288 34.0750
0652 1421046508 34.1629
0653 1421047729 33.7568
0654 1421048950 34.3507
0655 1421050170 34.4695
0656 1421051391 34.2979
0657 1421052612 34.4057
0658 1421053833 34.4727
0659 1421055053 34.4938
0660 1421056274 34.0829
0661 1421057495 34.6248
0662 1421058715 34.5546
0663 1421059936 34.2014
0664 1421061157 34.1968
0665 1421062377 34.2587
0666 1421063598 33.9981
0667 1421064819 33.7867
0668 1421066040 34.3367
0669 1421067260 34.4170
0670 1421068481 34.0140
0671 1421069702 33.6574
0672 1421070922 34.4092
0673 1421072143 34.2869
0674 1421073364 34.6623
0675 1421074584 33.9937
0676 1421075805 34.3884
0677 1421077026 34.5570
0678 1421078247 33.9258
0679 1421079467 34.0067
0680 1421080688 34.1136
0681 1421081909 34.3961
0682 1421083129 34.3032
0683 1421084350 34.4708
0684 1421085571 33.9612
0685 1421086791 34.3461
0686 1421088012 34.8382
0687 1421089233 34.9775
0688 1421090454 34.8072
0689 1421091674 34.4059
0690 1421092895 33.9673
0691 1421094116 34.2449
0692 1421095336 35.0428
0693 1421096557 34.7070
0694 1421097778 34.6123
0695 1421098999 34.7561
0696 1421100219 34.7095
0697 1421101440 34.5896
0698 1421102661 34.6346
0699 1421103881 34.2171
0700 1421105102 34.5216
0701 1421106323 34.8219
0702 1421107543 34.8933
0703 1421108764 34.7833
0704 1421109985 34.6501
0705 1421111206 34.7805
0706 1421112426 34.6087
0707 1421113647 34.5266
0708 1421114868 34.5968
0709 1421116088 34.2581
0710 1421117309 34.5210
0711 1421118530 34.9626
0712 1421119750 34.5823
0713 1421120971 34.5584
0714 1421122192 35.0513
0715 1421123413 35.0226
0716 1421124633 35.2367
0717 1421125854 35.2906
0718 1421127075 35.0508
0719 1421128295 34.9183
0720 1421129516 34.8594
0721 1421130737 34.9952
0722 1421131958 34.8645
0723 1421133178 35.6479
0724 1421134399 35.2355
0725 1421135620 35.3096
0726 1421136840 34.8738
0727 1421138061 34.4162
0728 1421139282 34.5412
0729 1421140502 34.9441
0730 1421141723 35.2213
0731 1421142944 35.3772
0732 1421144165 34.7077
0733 1421145385 35.2205
0734 1421146606 35.1876
0735 1421147827 34.9927
0736 1421149047 35.4536
0737 1421150268 35.4339
0738 1421151489 36.0090
0739 1421152709 36.0259
0740 1421153930 35.8493
0741 1421155151 35.5575
0742 1421156372 35.7015
0743 1421157592 35.2035
0744 1421158813 35.7472
0745 1421160034 35.2558
0746 1421161254 35.3680
0747 1421162475 35.5707
0748 1421163696 36.1743
0749 1421164916 35.8796
0750 1421166137 35.8265
0751 1421167358 35.8443
0752 1421168579 35.9373
0753 1421169799 36.2243
0754 1421171020 35.9011
0755 1421172241 35.5717
0756 1421173461 35.8765
0757 1421174682 36.0800
0758 1421175903 36.1826
0759 1421177124 36.1304
0760 1421178344 35.6768
0761 1421179565 35.8221
0762 1421180786 36.0724
0763 1421182006 35.7893
0764 1421183227 36.1027
0765 1421184448 36.0463
0766 1421185668 35.9963
0767 1421186889 35.9481
0768 1421188110 36.1821
0769 1421189331 35.6055
0770 1421190551 36.5020
0771 1421191772 36.3349
0772 1421192993 36.2603
0773 1421194213 36.3812
0774 1421195434 36.4297
0775 1421196655 36.0036
0776 1421197875 36.3955
0777 1421199096 36.6213
0778 1421200317 36.4035
0779 1421201538 36.8272
0780 1421202758 37.4796
0781 1421203979 37.0996
0782 1421205200 36.5940
0783 1421206420 37.1664
0784 1421207641 36.6425
0785 1421208862 36.8180
0786 1421210083 36.4758
0787 1421211303 37.0856
0788 1421212524 37.0211
0789 1421213745 36.8997
0790 1421214965 36.8746
0791 1421216186 37.5235
0792 1421217407 37.5077
0793 1421218627 36.8147
0794 1421219848 36.5251
0795 1421221069 36.7119
0796 1421222290 36.6929
0797 1421223510 36.5740
0798 1421224731 37.0068
0799 1421225952 37.1623
0800 1421227172 36.7507
0801 1421228393 36.9087
0802 1421229614 36.8957
0803 1421230834 37.0042
0804 1421232055 36.7760
0805 1421233276 37.5057
0806 1421234497 37.3115
0807 1421235717 37.0679
0808 1421236938 37.2984
0809 1421238159 37.2554
0810 1421239379 37.7452
0811 1421240600 37.8214
0812 1421241821 37.8941
0813 1421243041 37.4460
0814 1421244262 37.7136
0815 1421245483 37.5269
0816 1421246704 37.3756
0817 1421247924 37.2951
0818 1421249145 37.7044
0819 1421250366 37.5290
0820 1421251586 37.2240
0821 1421252807 37.5835
0822 1421254028 37.9603
0823 1421255249 38.2965
0824 1421256469 38.3308
0825 1421257690 38.3064
0826 1421258911 38.1539
0827 1421260131 37.7247
0828 1421261352 38.0095
0829 1421262573 38.3621
0830 1421263793 37.7426
0831 1421265014 38.3812
0832 1421266235 38.1521
0833 1421267456 38.2893
0834 1421268676 38.7372
0835 1421269897 38.6795
0836 1421271118 38.4178
0837 1421272338 38.2753
0838 1421273559 39.2878
0839 1421274780 39.0233
0840 1421276000 38.7820
0841 1421277221 38.3175
0842 1421278442 38.5472
0843 1421279663 38.4785
0844 1421280883 38.2534
0845 1421282104 38.9487
0846 1421283325 39.0504
0847 1421284545 38.4066
0848 1421285766 38.3066
0849 1421286987 38.6384
0850 1421288208 38.4294
0851 1421289428 39.2162
0852 1421290649 38.7279
0853 1421291870 38.6633
0854 1421293090 39.0675
0855 1421294311 38.7173
0856 1421295532 39.0646
0857 1421296752 39.0710
0858 1421297973 38.9014
0859 1421299194 39.3807
0860 1421300415 39.1671
0861 1421301635 39.6691
0862 1421302856 39.4353
0863 1421304077 39.3903
0864 1421305297 39.2916
0865 1421306518 39.5154
0866 1421307739 38.5652
0867 1421308959 39.0791
0868 1421310180 39.5595
0869 1421311401 39.3445
0870 1421312622 40.1043
0871 1421313842 39.3425
0872 1421315063 39.4490
0873 1421316284 39.8929
0874 1421317504 39.4493
0875 1421318725 39.7513
0876 1421319946 39.4385
0877 1421321166 39.4085
0878 1421322387 39.7939
0879 1421323608 39.9361
0880 1421324829 39.5600
0881 1421326049 39.7503
0882 1421327270 39.9509
0883 1421328491 39.6133
0884 1421329711 39.8394
0885 1421330932 39.7007
0886 1421332153 39.7900
0887 1421333374 40.0045
0888 1421334594 40.0458
0889 1421335815 40.0088
0890 1421337036 39.6665
0891 1421338256 40.5156
0892 1421339477 39.5957
0893 1421340698 40.2946
0894 1421341918 40.4483
0895 1421343139 39.9993
0896 1421344360 40.4063
0897 1421345581 39.8922
0898 1421346801 39.8972
0899 1421348022 40.5257
0900 1421349243 40.3692
0901 1421350463 40.2164
0902 1421351684 39.9714
0903 1421352905 40.7274
0904 1421354125 40.4984
0905 1421355346 40.6554
0906 1421356567 40.8477
0907 1421357788 41.1270
0908 1421359008 40.9559
0909 1421360229 40.6754
0910 1421361450 39.9648
0911 1421362670 40.5695
0912 1421363891 40.0547
0913 1421365112 40.5930
0914 1421366333 40.3696
0915 1421367553 41.1421
0916 1421368774 41.3636
0917 1421369995 40.9148
0918 1421371215 40.8810
0919 1421372436 41.3671
0920 1421373657 41.0324
0921 1421374877 40.7901
0922 1421376098 41.1097
0923 1421377319 40.7360
0924 1421378540 40.9162
0925 1421379760 41.5524
0926 1421380981 41.4935
0927 1421382202 41.5314
0928 1421383422 41.5172
0929 1421384643 41.3530
0930 1421385864 41.1871
0931 1421387084 41.0613
0932 1421388305 40.9836
0933 1421389526 40.9412
0934 1421390747 41.5545
0935 1421391967 41.3572
0936 1421393188 41.0008
0937 1421394409 41.5396
0938 1421395629 41.4013
0939 1421396850 41.3210
0940 1421398071 41.5905
0941 1421399291 42.2352
0942 1421400512 42.0353
0943 1421401733 41.8147
0944 1421402954 42.0872
0945 1421404174 41.4666
0946 1421405395 41.7174
0947 1421406616 41.6869
0948 1421407836 42.2470
0949 1421409057 41.3516
0950 1421410278 41.4442
0951 1421411499 41.6513
0952 1421412719 42.1896
0953 1421413940 42.2002
0954 1421415161 42.4770
0955 1421416381 42.0261
0956 1421417602 42.7566
0957 1421418823 42.3144
0958 1421420043 41.8834
0959 1421421264 42.1801
0960 1421422485 41.5620
0961 1421423706 41.7582
0962 1421424926 42.2310
0963 1421426147 42.0492
0964 1421427368 42.4490
0965 1421428588 42.3629
0966 1421429809 42.0877
0967 1421431030 41.6408
0968 1421432250 42.6087
0969 1421433471 42.6655
0970 1421434692 42.0752
0971 1421435913 42.3503
0972 1421437133 42.1020
0973 1421438354 41.9820
0974 1421439575 42.2249
0975 1421440795 42.1157
0976 1421442016 42.4564
0977 1421443237 42.0200
0978 1421444458 42.3623
0979 1421445678 42.7947
0980 1421446899 42.4811
0981 1421448120 42.5703
0982 1421449340 41.9908
0983 1421450561 42.5152
0984 1421451782 42.1115
0985 1421453002 42.6506
0986 1421454223 42.7808
0987 1421455444 42.1939
0988 1421456665 42.7401
0989 1421457885 43.3725
0990 1421459106 42.2474
0991 1421460327 42.8451
0992 1421461547 42.8969
0993 1421462768 43.4222
0994 1421463989 42.6418
0995 1421465209 42.8496
0996 1421466430 42.9774
0997 1421467651 42.8777
0998 1421468872 43.2209
0999 1421470092 42.3500
1000 1421471313 43.0456
1001 1421472534 42.5045
1002 1421473754 43.6958
1003 1421474975 43.1793
1004 1421476196 42.7588
1005 1421477416 43.4252
1006 1421478637 42.9507
1007 1421479858 42.8065
1008 1421481079 43.1930
1009 1421482299 43.7006
1010 1421483520 43.4655
1011 1421484741 43.5428
1012 1421485961 43.5857
1013 1421487182 43.1814
1014 1421488403 43.8694
1015 1421489624 44.4312
1016 1421490844 44.4089
1017 1421492065 44.5545
1018 1421493286 44.7370
1019 1421494506 45.4908
1020 1421495727 45.8569
1021 1421496948 47.1830
1022 1421498168 48.6019
1023 1421499389 50.3489
1024 1421500610 46.2863
1025 1421501831 49.6862
1026 1421503051 48.4959
1027 1421504272 47.1917
1028 1421505493 46.7455
1029 1421506713 45.6104
1030 1421507934 45.3614
1031 1421509155 44.3437
1032 1421510375 43.9506
1033 1421511596 44.1484
1034 1421512817 44.3866
1035 1421514038 44.7300
1036 1421515258 44.4177
1037 1421516479 43.6238
1038 1421517700 43.6062
1039 1421518920 43.3661
1040 1421520141 43.1052
1041 1421521362 43.1145
1042 1421522583 43.8279
1043 1421523803 43.4427
1044 1421525024 43.1275
1045 1421526245 42.6863
1046 1421527465 43.0090
1047 1421528686 43.3029
1048 1421529907 43.2304
1049 1421531127 43.3884
1050 1421532348 43.1068
1051 1421533569 42.9064
1052 1421534790 42.9602
1053 1421536010 42.4073
1054 1421537231 41.9059
1055 1421538452 43.2366
1056 1421539672 43.4089
1057 1421540893 42.9751
1058 1421542114 43.1958
1059 1421543334 43.0289
1060 1421544555 42.7034
1061 1421545776 43.2240
1062 1421546997 42.9450
1063 1421548217 43.1545
1064 1421549438 43.0359
1065 1421550659 42.0266
1066 1421551879 43.0012
1067 1421553100 42.9771
1068 1421554321 43.0471
1069 1421555541 42.4057
1070 1421556762 42.0053
1071 1421557983 42.4134
1072 1421559204 42.9717
1073 1421560424 42.7243
1074 1421561645 42.5386
1075 1421562866 42.4829
1076 1421564086 42.6821
1077 1421565307 42.5988
1078 1421566528 42.5392
1079 1421567749 42.6794
1080 1421568969 42.2839
1081 1421570190 41.8598
1082 1421571411 42.1132
1083 1421572631 42.2444
1084 1421573852 42.1970
1085 1421575073 42.8650
1086 1421576293 42.5359
1087 1421577514 42.0434
1088 1421578735 42.2902
1089 1421579956 42.3755
1090 1421581176 42.5801
1091 1421582397 42.2148
1092 1421583618 41.3557
1093 1421584838 42.1071
1094 1421586059 42.6399
1095 1421587280 42.1052
1096 1421588500 41.5165
1097 1421589721 42.1669
1098 1421590942 41.9961
1099 1421592163 41.9895
1100 1421593383 41.7780
1101 1421594604 41.6229
1102 1421595825 41.3908
1103 1421597045 42.0227
1104 1421598266 42.3373
1105 1421599487 42.7851
1106 1421600708 42.0783
1107 1421601928 42.4385
1108 1421603149 41.9689
1109 1421604370 41.7132
1110 1421605590 42.3155
1111 1421606811 42.2573
1112 1421608032 41.1447
1113 1421609252 41.8285
1114 1421610473 43.0363
1115 1421611694 41.6135
1116 1421612915 41.4956
1117 1421614135 41.5281
1118 1421615356 41.5400
1119 1421616577 41.4438
1120 1421617797 41.1083
1121 1421619018 41.8206
1122 1421620239 41.2964
1123 1421621459 40.8226
1124 1421622680 41.1519
1125 1421623901 41.1651
1126 1421625122 41.0186
1127 1421626342 41.3441
1128 1421627563 41.6056
1129 1421628784 41.5630
1130 1421630004 40.9812
1131 1421631225 41.4568
1132 1421632446 41.0314
1133 1421633666 41.3040
1134 1421634887 40.7636
1135 1421636108 41.3859
1136 1421637329 40.8188
1137 1421638549 41.1777
1138 1421639770 41.4030
1139 1421640991 41.1955
1140 1421642211 40.6219
1141 1421643432 40.9120
1142 1421644653 41.1643
1143 1421645874 40.8732
1144 1421647094 41.3474
1145 1421648315 40.5286
1146 1421649536 40.3763
1147 1421650756 41.1707
1148 1421651977 40.9484
1149 1421653198 40.9560
1150 1421654418 40.8801
1151 1421655639 40.5571
1152 1421656860 40.5373
1153 1421658081 40.5509
1154 1421659301 40.2295
1155 1421660522 40.1092
1156 1421661743 40.7379
1157 1421662963 40.0538
1158 1421664184 40.2268
1159 1421665405 40.2874
1160 1421666625 41.3470
1161 1421667846 40.2543
1162 1421669067 40.5671
1163 1421670288 40.8819
1164 1421671508 40.2488
1165 1421672729 40.4944
1166 1421673950 40.5351
1167 1421675170 40.4163
1168 1421676391 40.0577
1169 1421677612 39.9084
1170 1421678833 40.6250
1171 1421680053 40.4733
1172 1421681274 40.7070
1173 1421682495 40.1691
1174 1421683715 40.0785
1175 1421684936 40.0248
1176 1421686157 40.0616
1177 1421687377 39.4700
1178 1421688598 39.7753
1179 1421689819 39.7778
1180 1421691040 40.2636
1181 1421692260 39.6458
1182 1421693481 39.7426
1183 1421694702 39.8768
1184 1421695922 40.3187
1185 1421697143 39.5011
1186 1421698364 39.7822
1187 1421699584 39.2551
1188 1421700805 39.3174
1189 1421702026 39.6359
1190 1421703247 39.6620
1191 1421704467 40.0648
1192 1421705688 39.4741
1193 1421706909 39.2662
1194 1421708129 39.5563
1195 1421709350 39.5276
1196 1421710571 39.6384
1197 1421711791 39.3505
1198 1421713012 38.9472
1199 1421714233 39.6356
1200 1421715454 39.0454
1201 1421716674 39.0467
1202 1421717895 38.9547
1203 1421719116 39.0023
1204 1421720336 39.4046
1205 1421721557 39.5347
1206 1421722778 39.1691
1207 1421723999 39.3314
1208 1421725219 39.0505
1209 1421726440 39.0748
1210 1421727661 39.1086
1211 1421728881 38.7958
1212 1421730102 38.9450
1213 1421731323 39.1620
1214 1421732543 39.2742
1215 1421733764 38.4369
1216 1421734985 39.0709
1217 1421736206 38.8956
1218 1421737426 38.8885
1219 1421738647 39.0461
1220 1421739868 39.3267
1221 1421741088 38.6162
1222 1421742309 39.0307
1223 1421743530 38.2878
1224 1421744750 38.1067
1225 1421745971 38.4455
1226 1421747192 38.0706
1227 1421748413 37.6638
1228 1421749633 38.3990
1229 1421750854 38.3921
1230 1421752075 38.3163
1231 1421753295 38.2804
1232 1421754516 38.3099
1233 1421755737 38.2510
1234 1421756958 38.3302
1235 1421758178 38.7860
1236 1421759399 37.8254
1237 1421760620 37.6847
1238 1421761840 38.1602
1239 1421763061 37.6584
1240 1421764282 38.1708
1241 1421765502 37.9352
1242 1421766723 38.0819
1243 1421767944 38.0958
1244 1421769165 38.2242
1245 1421770385 38.3104
1246 1421771606 37.9893
1247 1421772827 37.9749
1248 1421774047 37.6564
1249 1421775268 37.8576
1250 1421776489 38.4321
1251 1421777709 37.8654
1252 1421778930 38.0844
1253 1421780151 38.0336
1254 1421781372 38.0729
1255 1421782592 37.4501
1256 1421783813 37.2265
1257 1421785034 37.3496
1258 1421786254 37.3029
1259 1421787475 38.1055
1260 1421788696 37.3401
1261 1421789916 37.1683
1262 1421791137 37.6285
1263 1421792358 37.7443
1264 1421793579 37.3421
1265 1421794799 37.0083
1266 1421796020 37.2285
1267 1421797241 37.1121
1268 1421798461 37.2111
1269 1421799682 37.0666
1270 1421800903 37.3996
1271 1421802124 37.1625
1272 1421803344 37.1357
1273 1421804565 37.2517
1274 1421805786 37.4777
1275 1421807006 41.9080
1276 1421808227 45.9629
1277 1421809448 38.3163
1278 1421810668 37.3478
1279 1421811889 37.0396
1280 1421813110 37.2826
1281 1421814331 37.1805
1282 1421815551 36.6989
1283 1421816772 36.9260
1284 1421817993 36.8475
1285 1421819213 36.8054
1286 1421820434 37.4668
1287 1421821655 36.8070
1288 1421822875 37.0985
1289 1421824096 36.3478
1290 1421825317 36.5471
1291 1421826538 36.9311
1292 1421827758 37.2457
1293 1421828979 36.9933
1294 1421830200 36.2796
1295 1421831420 36.6270
1296 1421832641 36.4043
1297 1421833862 36.7901
1298 1421835083 37.1119
1299 1421836303 36.7070
1300 1421837524 36.1831
1301 1421838745 36.1573
1302 1421839965 35.9940
1303 1421841186 36.3112
1304 1421842407 36.4520
1305 1421843627 36.5024
1306 1421844848 36.4147
1307 1421846069 35.9505
1308 1421847290 36.4012
1309 1421848510 36.4024
1310 1421849731 36.6012
1311 1421850952 35.6679
1312 1421852172 36.6189
1313 1421853393 37.0063
1314 1421854614 36.5218
1315 1421855834 35.7339
1316 1421857055 35.9430
1317 1421858276 36.5277
1318 1421859497 36.3892
1319 1421860717 36.3306
1320 1421861938 35.9404
1321 1421863159 36.0794
1322 1421864379 35.9354
1323 1421865600 36.2034
1324 1421866821 35.9323
1325 1421868041 37.0630
1326 1421869262 37.5936
1327 1421870483 37.9621
1328 1421871704 37.0007
1329 1421872924 36.9086
1330 1421874145 36.1904
1331 1421875366 35.6463
1332 1421876586 35.5109
1333 1421877807 36.1854
1334 1421879028 35.6979
1335 1421880249 35.5786
1336 1421881469 35.5232
1337 1421882690 35.7567
1338 1421883911 36.0270
1339 1421885131 35.3887
1340 1421886352 35.5576
1341 1421887573 35.4639
1342 1421888793 35.7336
1343 1421890014 35.9820
1344 1421891235 35.5819
1345 1421892456 35.6155
1346 1421893676 35.2405
1347 1421894897 35.4918
1348 1421896118 35.5010
1349 1421897338 35.4111
1350 1421898559 35.6463
1351 1421899780 35.6824
1352 1421901000 36.0807
1353 1421902221 34.9792
1354 1421903442 35.4562
1355 1421904663 35.6088
1356 1421905883 35.6977
1357 1421907104 35.5878
1358 1421908325 35.5112
1359 1421909545 35.9829
1360 1421910766 35.6290
1361 1421911987 35.2714
1362 1421913208 35.2765
1363 1421914428 35.5953
1364 1421915649 35.2284
1365 1421916870 35.1952
1366 1421918090 35.4061
1367 1421919311 35.3574
1368 1421920532 35.2371
1369 1421921752 35.4250
1370 1421922973 35.7715
1371 1421924194 34.9593
1372 1421925415 35.2612
1373 1421926635 35.3424
1374 1421927856 35.3298
1375 1421929077 35.6054
1376 1421930297 35.4754
1377 1421931518 34.6941
1378 1421932739 35.4209
1379 1421933959 35.3966
1380 1421935180 35.3024
1381 1421936401 35.1617
1382 1421937622 35.1490
1383 1421938842 35.3499
1384 1421940063 35.8138
1385 1421941284 35.6479
1386 1421942504 35.2945
1387 1421943725 35.4486
1388 1421944946 35.3240
1389 1421946166 35.6429
1390 1421947387 35.5444
1391 1421948608 35.2594
1392 1421949829 35.4131
1393 1421951049 35.0292
1394 1421952270 35.5017
1395 1421953491 35.2336
1396 1421954711 35.4263
1397 1421955932 35.7530
1398 1421957153 35.7877
1399 1421958374 35.6394
1400 1421959594 35.3810
1401 1421960815 36.0305
1402 1421962036 35.8278
1403 1421963256 35.9710
1404 1421964477 35.6111
1405 1421965698 35.5513
1406 1421966918 35.2914
1407 1421968139 35.6300
1408 1421969360 35.5208
1409 1421970581 35.2901
1410 1421971801 35.6905
1411 1421973022 35.4121
1412 1421974243 35.5611
1413 1421975463 36.1477
1414 1421976684 37.2053
1415 1421977905 36.5267
1416 1421979125 35.8928
1417 1421980346 35.0936
1418 1421981567 35.0216
1419 1421982788 35.3562
1420 1421984008 36.1991
1421 1421985229 35.3373
1422 1421986450 35.1120
1423 1421987670 35.6772
1424 1421988891 35.6955
1425 1421990112 35.7777
1426 1421991333 35.4176
1427 1421992553 35.5743
1428 1421993774 35.3497
1429 1421994995 35.4168
1430 1421996215 35.4944
1431 1421997436 35.0124
1432 1421998657 35.7017
1433 1421999877 35.8207
1434 1422001098 35.6148
1435 1422002319 36.1249
1436 1422003540 55.5213
1437 1422004760 445.5205
1438 1422005981 250.6684
1439 1422007202 37.4221
1440 1422008422 35.6420
1441 1422009643 35.3302
1442 1422010864 35.7537
1443 1422012084 35.9290
1444 1422013305 35.6695
1445 1422014526 35.8160
1446 1422015747 35.5077
1447 1422016967 35.4681
1448 1422018188 36.0821
1449 1422019409 35.8722
1450 1422020629 35.4020
1451 1422021850 36.3441
1452 1422023071 36.1635
1453 1422024291 35.4793
1454 1422025512 35.3738
1455 1422026733 35.3451
1456 1422027954 35.8915
1457 1422029174 35.5311
1458 1422030395 35.6493
1459 1422031616 35.8900
1460 1422032836 35.4206
1461 1422034057 35.7238
1462 1422035278 35.5989
1463 1422036499 35.9449
1464 1422037719 35.8102
1465 1422038940 36.0022
1466 1422040161 35.8431
1467 1422041381 35.6183
1468 1422042602 35.8010
1469 1422043823 36.2951
1470 1422045043 36.1798
1471 1422046264 35.7557
1472 1422047485 35.7186
1473 1422048706 35.6482
1474 1422049926 35.4534
1475 1422051147 36.0828
1476 1422052368 35.6981
1477 1422053588 36.1747
1478 1422054809 35.9652
1479 1422056030 35.5952
1480 1422057250 35.0919
1481 1422058471 35.4310
1482 1422059692 35.8955
1483 1422060913 36.1162
1484 1422062133 35.6651
1485 1422063354 35.8414
1486 1422064575 35.1526
1487 1422065795 36.2531
1488 1422067016 35.5963
1489 1422068237 35.5000
1490 1422069458 34.8515
1491 1422070678 35.5810
1492 1422071899 36.4053
1493 1422073120 35.7323
1494 1422074340 36.0148
1495 1422075561 35.4188
1496 1422076782 35.3340
1497 1422078002 35.5738
1498 1422079223 35.8865
1499 1422080444 35.8873
1500 1422081665 36.1718
1501 1422082885 35.9999
1502 1422084106 35.8546
1503 1422085327 35.3713
1504 1422086547 35.6271
1505 1422087768 35.8001
1506 1422088989 35.5925
1507 1422090209 36.3371
1508 1422091430 35.8812
1509 1422092651 35.7551
1510 1422093872 36.0699
1511 1422095092 35.8486
1512 1422096313 35.6514
1513 1422097534 35.6331
1514 1422098754 36.0013
1515 1422099975 35.9245
1516 1422101196 35.7810
1517 1422102416 35.8920
1518 1422103637 35.6966
1519 1422104858 35.7438
1520 1422106079 36.2587
1521 1422107299 35.3917
1522 1422108520 35.9692
1523 1422109741 36.1574
1524 1422110961 35.6509
1525 1422112182 35.8588
1526 1422113403 35.6715
1527 1422114624 36.0915
1528 1422115844 35.8673
1529 1422117065 36.1452
1530 1422118286 36.1388
1531 1422119506 35.7919
1532 1422120727 36.0278
1533 1422121948 36.3444
1534 1422123168 36.0337
1535 1422124389 35.6476
1536 1422125610 35.4933
1537 1422126831 36.2353
1538 1422128051 36.0008
1539 1422129272 35.5860
1540 1422130493 35.4907
1541 1422131713 36.0572
1542 1422132934 36.5086
1543 1422134155 36.2369
1544 1422135375 35.5370
1545 1422136596 36.5363
1546 1422137817 36.3854
1547 1422139038 35.9285
1548 1422140258 36.3205
1549 1422141479 35.9388
1550 1422142700 36.1280
1551 1422143920 36.6039
1552 1422145141 36.1635
1553 1422146362 36.4219
1554 1422147583 36.2361
1555 1422148803 36.3481
1556 1422150024 36.0715
1557 1422151245 36.2960
1558 1422152465 36.0130
1559 1422153686 36.0809
1560 1422154907 36.4446
1561 1422156127 35.6479
1562 1422157348 36.1210
1563 1422158569 36.2388
1564 1422159790 35.7350
1565 1422161010 36.1030
1566 1422162231 36.5032
1567 1422163452 36.1117
1568 1422164672 36.3278
1569 1422165893 35.6940
1570 1422167114 35.5139
1571 1422168334 36.4535
1572 1422169555 36.1592
1573 1422170776 36.1586
1574 1422171997 36.0467
1575 1422173217 36.1833
1576 1422174438 36.3500
1577 1422175659 36.1189
1578 1422176879 36.0316
1579 1422178100 36.1094
1580 1422179321 35.8244
1581 1422180541 36.4192
1582 1422181762 35.8270
1583 1422182983 35.5787
1584 1422184204 36.3082
1585 1422185424 36.1798
1586 1422186645 36.0082
1587 1422187866 36.2536
1588 1422189086 36.0695
1589 1422190307 36.6362
1590 1422191528 36.3773
1591 1422192749 36.4811
1592 1422193969 36.5198
1593 1422195190 36.0894
1594 1422196411 36.6790
1595 1422197631 36.3542
1596 1422198852 36.7229
1597 1422200073 36.8090
1598 1422201293 37.8428
1599 1422202514 43.9973
1600 1422203735 38.1057
1601 1422204956 36.5164
1602 1422206176 36.0205
1603 1422207397 36.4091
1604 1422208618 36.4819
1605 1422209838 36.1380
1606 1422211059 36.2826
1607 1422212280 36.0394
1608 1422213500 36.0440
1609 1422214721 36.7344
1610 1422215942 36.6423
1611 1422217163 36.0975
1612 1422218383 36.1315
1613 1422219604 36.3092
1614 1422220825 36.5639
1615 1422222045 36.2180
1616 1422223266 36.5498
1617 1422224487 36.0813
1618 1422225708 36.3713
1619 1422226928 35.8081
1620 1422228149 35.7668
1621 1422229370 35.8388
1622 1422230590 35.9797
1623 1422231811 35.8695
1624 1422233032 35.8204
1625 1422234252 36.4097
1626 1422235473 36.4015
1627 1422236694 36.0147
1628 1422237915 36.3518
1629 1422239135 36.1230
1630 1422240356 36.1172
1631 1422241577 35.8946
1632 1422242797 36.3820
1633 1422244018 36.2037
1634 1422245239 35.5593
1635 1422246459 35.5783
1636 1422247680 36.1817
1637 1422248901 36.3135
1638 1422250122 35.7782
1639 1422251342 36.2252
1640 1422252563 36.0661
1641 1422253784 35.7993
1642 1422255004 35.7247
1643 1422256225 35.4752
1644 1422257446 35.7302
1645 1422258666 35.7190
1646 1422259887 36.1801
1647 1422261108 35.3762
1648 1422262329 35.5225
1649 1422263549 35.4228
1650 1422264770 35.5087
1651 1422265991 35.9157
1652 1422267211 36.2573
1653 1422268432 35.9929
1654 1422269653 35.6243
1655 1422270874 35.4286
1656 1422272094 35.1847
1657 1422273315 35.5711
1658 1422274536 34.9299
1659 1422275756 35.4128
1660 1422276977 35.2739
1661 1422278198 34.8029
1662 1422279418 34.9958
1663 1422280639 35.4874
1664 1422281860 35.3783
1665 1422283081 35.0613
1666 1422284301 35.0972
1667 1422285522 35.3442
1668 1422286743 34.6084
1669 1422287963 34.7059
1670 1422289184 35.0080
1671 1422290405 35.1677
1672 1422291625 34.9370
1673 1422292846 35.0057
1674 1422294067 34.6562
1675 1422295288 34.7317
1676 1422296508 34.8268
1677 1422297729 34.3054
1678 1422298950 34.5481
1679 1422300170 34.3746
1680 1422301391 34.5357
1681 1422302612 34.7323
1682 1422303833 34.8633
1683 1422305053 34.5665
1684 1422306274 34.3399
1685 1422307495 34.4924
1686 1422308715 34.4438
1687 1422309936 34.5551
1688 1422311157 34.2004
1689 1422312377 34.2461
1690 1422313598 34.0880
1691 1422314819 33.7717
1692 1422316040 33.7213
1693 1422317260 34.0571
1694 1422318481 34.0827
1695 1422319702 34.0720
1696 1422320922 33.9521
1697 1422322143 33.5854
1698 1422323364 33.5827
1699 1422324584 34.2172
1700 1422325805 34.1238
1701 1422327026 33.9947
1702 1422328247 33.2505
1703 1422329467 33.5042
1704 1422330688 33.9147
1705 1422331909 33.4442
1706 1422333129 33.1426
1707 1422334350 33.1771
1708 1422335571 33.3147
1709 1422336791 32.8909
1710 1422338012 33.0747
1711 1422339233 32.9035
1712 1422340454 33.1096
1713 1422341674 32.9431
1714 1422342895 32.9492
1715 1422344116 32.7850
1716 1422345336 32.6226
1717 1422346557 32.5124
1718 1422347778 32.9365
1719 1422348999 32.9741
1720 1422350219 32.5098
1721 1422351440 32.3980
1722 1422352661 32.1182
1723 1422353881 32.2285
1724 1422355102 32.3094
1725 1422356323 32.2043
1726 1422357543 31.9563
1727 1422358764 31.7703
1728 1422359985 31.9659
1729 1422361206 32.0968
1730 1422362426 31.7978
1731 1422363647 31.6894
1732 1422364868 31.5707
1733 1422366088 31.3418
1734 1422367309 31.8682
1735 1422368530 31.5266
1736 1422369750 31.5012
1737 1422370971 31.6659
1738 1422372192 30.9499
1739 1422373413 31.2696
1740 1422374633 31.0878
1741 1422375854 31.4148
1742 1422377075 30.9887
1743 1422378295 30.6981
1744 1422379516 30.7151
1745 1422380737 30.4754
1746 1422381958 30.3074
1747 1422383178 30.7212
1748 1422384399 30.4594
1749 1422385620 30.5948
1750 1422386840 30.3213
1751 1422388061 30.4012
1752 1422389282 30.0392
1753 1422390502 30.4053
1754 1422391723 30.3081
1755 1422392944 30.2646
1756 1422394165 29.8260
1757 1422395385 30.0831
1758 1422396606 30.1230
1759 1422397827 29.8658
1760 1422399047 29.7396
1761 1422400268 30.3597
1762 1422401489 29.6112
1763 1422402709 29.7122
1764 1422403930 29.9347
1765 1422405151 29.1757
1766 1422406372 29.5041
1767 1422407592 29.3512
1768 1422408813 29.3285
1769 1422410034 29.3795
1770 1422411254 29.2150
1771 1422412475 29.2498
1772 1422413696 28.8113
1773 1422414916 28.9637
1774 1422416137 28.2383
1775 1422417358 28.4861
1776 1422418579 28.3329
1777 1422419799 28.2021
1778 1422421020 28.4801
1779 1422422241 28.2997
1780 1422423461 27.9681
1781 1422424682 27.7990
1782 1422425903 28.1206
1783 1422427124 27.5358
1784 1422428344 27.6766
1785 1422429565 27.6806
1786 1422430786 27.5392
1787 1422432006 27.0575
1788 1422433227 27.1572
1789 1422434448 27.4815
1790 1422435668 27.3303
1791 1422436889 26.8510
1792 1422438110 27.2287
1793 1422439331 27.4749
1794 1422440551 27.1438
1795 1422441772 26.5200
1796 1422442993 26.4533
1797 1422444213 26.5183
1798 1422445434 26.1768
1799 1422446655 26.1597
1800 1422447875 26.2500
1801 1422449096 26.3532
1802 1422450317 26.2139
1803 1422451538 25.7662
1804 1422452758 25.7204
1805 1422453979 25.9847
1806 1422455200 25.8362
1807 1422456420 25.7894
1808 1422457641 25.5231
1809 1422458862 25.4340
1810 1422460083 25.1732
1811 1422461303 24.9978
1812 1422462524 25.3129
1813 1422463745 24.9545
1814 1422464965 24.6590
1815 1422466186 25.1250
1816 1422467407 25.1282
1817 1422468627 24.7188
1818 1422469848 24.5611
1819 1422471069 24.6445
1820 1422472290 24.4361
1821 1422473510 24.2423
1822 1422474731 24.1337
1823 1422475952 23.8931
1824 1422477172 24.0682
1825 1422478393 23.7613
1826 1422479614 23.4852
1827 1422480834 23.5790
1828 1422482055 23.1645
1829 1422483276 23.5240
1830 1422484497 23.2553
1831 1422485717 23.4012
1832 1422486938 23.1168
1833 1422488159 22.9724
1834 1422489379 22.9582
1835 1422490600 22.7061
1836 1422491821 22.7038
1837 1422493041 22.7005
1838 1422494262 22.1839
1839 1422495483 22.4225
1840 1422496704 22.3265
1841 1422497924 21.9803
1842 1422499145 22.0134
1843 1422500366 22.0227
1844 1422501586 21.7524
1845 1422502807 21.6486
1846 1422504028 21.3556
1847 1422505249 21.7415
1848 1422506469 21.1836
1849 1422507690 21.0807
1850 1422508911 21.0895
1851 1422510131 21.0844
1852 1422511352 20.9108
1853 1422512573 20.8302
1854 1422513793 20.5052
1855 1422515014 20.8451
1856 1422516235 20.1342
1857 1422517456 20.5658
1858 1422518676 20.7773
1859 1422519897 20.0533
1860 1422521118 20.0537
1861 1422522338 19.8750
1862 1422523559 19.9866
1863 1422524780 19.9840
1864 1422526000 19.6792
1865 1422527221 19.7053
1866 1422528442 19.6176
1867 1422529663 19.5003
1868 1422530883 19.1393
1869 1422532104 18.9510
1870 1422533325 18.8597
1871 1422534545 18.6904
1872 1422535766 18.7319
1873 1422536987 18.9930
1874 1422538208 18.4003
1875 1422539428 18.5181
1876 1422540649 18.4988
1877 1422541870 18.6102
1878 1422543090 18.1384
1879 1422544311 18.0224
1880 1422545532 18.1648
1881 1422546752 17.7826
1882 1422547973 17.9352
1883 1422549194 17.8270
1884 1422550415 17.5245
1885 1422551635 17.5401
1886 1422552856 17.3971
1887 1422554077 17.3415
1888 1422555297 17.2898
1889 1422556518 17.2989
1890 1422557739 16.9797
1891 1422558959 16.7699
1892 1422560180 16.8885
1893 1422561401 16.6993
1894 1422562622 16.6674
1895 1422563842 16.5762
1896 1422565063 16.4625
1897 1422566284 16.2198
1898 1422567504 16.2453
1899 1422568725 15.9653
1900 1422569946 15.9073
1901 1422571166 15.9238
1902 1422572387 15.8590
1903 1422573608 15.8989
1904 1422574829 15.7248
1905 1422576049 15.4394
1906 1422577270 15.2812
1907 1422578491 15.2441
1908 1422579711 15.0136
1909 1422580932 15.2597
1910 1422582153 15.2392
1911 1422583374 14.9464
1912 1422584594 14.8037
1913 1422585815 14.7702
1914 1422587036 14.9050
1915 1422588256 14.6739
1916 1422589477 14.5530
1917 1422590698 14.5556
1918 1422591918 14.3634
1919 1422593139 14.2451
1920 1422594360 14.1022
1921 1422595581 14.0758
1922 1422596801 14.0766
1923 1422598022 13.9540
1924 1422599243 13.6720
1925 1422600463 13.5452
1926 1422601684 13.6532
1927 1422602905 13.4068
1928 1422604125 13.3158
1929 1422605346 13.5114
1930 1422606567 13.3772
1931 1422607788 13.1257
1932 1422609008 13.1443
1933 1422610229 13.1120
1934 1422611450 12.8857
1935 1422612670 12.7610
1936 1422613891 12.8029
1937 1422615112 12.8243
1938 1422616333 12.5793
1939 1422617553 12.6407
1940 1422618774 12.4913
1941 1422619995 12.2530
1942 1422621215 12.1172
1943 1422622436 12.2117
1944 1422623657 11.8658
1945 1422624877 11.8094
1946 1422626098 11.9115
1947 1422627319 11.8956
1948 1422628540 11.6861
1949 1422629760 11.5667
1950 1422630981 11.6199
1951 1422632202 11.4830
1952 1422633422 11.2921
1953 1422634643 11.5396
1954 1422635864 11.1177
1955 1422637084 11.1915
1956 1422638305 11.2162
1957 1422639526 11.1275
1958 1422640747 11.0031
1959 1422641967 11.0340
1960 1422643188 10.9672
1961 1422644409 10.8464
1962 1422645629 10.7106
1963 1422646850 10.6129
1964 1422648071 10.4949
1965 1422649291 10.6068
1966 1422650512 10.5495
1967 1422651733 10.3414
1968 1422652954 10.3855
1969 1422654174 10.2768
1970 1422655395 10.1315
1971 1422656616 10.2050
1972 1422657836 10.1766
1973 1422659057 9.9727
1974 1422660278 9.8721
1975 1422661499 9.8881
1976 1422662719 9.7879
1977 1422663940 9.7078
1978 1422665161 9.6690
1979 1422666381 9.6637
1980 1422667602 9.6151
1981 1422668823 9.6401
1982 1422670043 9.4867
1983 1422671264 9.4946
1984 1422672485 9.4254
1985 1422673706 9.3200
1986 1422674926 9.0291
1987 1422676147 9.2162
1988 1422677368 9.2570
1989 1422678588 9.0911
1990 1422679809 9.0229
1991 1422681030 9.0141
1992 1422682250 8.9742
1993 1422683471 8.9094
1994 1422684692 8.9479
1995 1422685913 8.8685
1996 1422687133 8.7078
1997 1422688354 8.6944
1998 1422689575 8.6912
1999 1422690795 8.5959
2000 1422692016 8.5700
2001 1422693237 8.5107
2002 1422694458 8.4889
2003 1422695678 8.5228
2004 1422696899 8.4976
2005 1422698120 8.4122
2006 1422699340 8.4432
2007 1422700561 8.5999
2008 1422701782 8.2423
2009 1422703002 8.3020
2010 1422704223 8.3502
2011 1422705444 8.1212
2012 1422706665 8.1801
2013 1422707885 8.1373
2014 1422709106 8.1065
2015 1422710327 7.9362
2016 1422711547 8.0865
2017 1422712768 8.0271
2018 1422713989 7.9783
2019 1422715209 7.9311
2020 1422716430 7.8684
2021 1422717651 7.7920
2022 1422718872 7.8655
2023 1422720092 7.7521
2024 1422721313 7.8823
2025 1422722534 7.8763
2026 1422723754 7.7642
2027 1422724975 7.7640
2028 1422726196 7.6873
2029 1422727416 7.5818
2030 1422728637 7.6049
2031 1422729858 7.6598
2032 1422731079 7.5940
2033 1422732299 7.5480
2034 1422733520 7.6339
2035 1422734741 7.5816
2036 1422735961 7.5290
2037 1422737182 7.5318
2038 1422738403 7.6150
2039 1422739624 7.5717
2040 1422740844 7.5091
2041 1422742065 7.4597
2042 1422743286 7.5026
2043 1422744506 7.5283
2044 1422745727 7.4966
2045 1422746948 7.5495
2046 1422748168 7.5787
2047 1422749389 7.8376
