# File: 20-06-07T200025.ast
# NOTEA     = None Attached.  RTLSDR Dongle Test
# NOTEB     = Spectral Integration
# OBSERVER  = Science Aficionado
# DEVICE    = rtl=0,bias=1
# DATADIR   = ../data/
# SITE      = None Attached.  RTLSDR Dongle Test
# CITY      = Seattle
# REGION    = Washington
# COUNTRY   = US
# TELTYPE   = UW CSE 490W Dish
# FRAME     = TOPO
# GAIN1     = 49.0
# GAIN2     = 11.0
# GAIN3     = 11.0
# GAIN4     = 0.0
# Count     = 2500
# CenterFreq= 1421500000.0
# Bandwidth = 2500000.0
# Duration  = 41.941325
# DeltaX    = 5859.375
# TSYS      = 200.0
# TRX       = 100.0
# TRMS      = 2.0
# TINT      = 1.0
# KPERC     = 100.0
# GAINFACT  = 1.0
# BUNIT     = Counts
# NCHAN     = 2048
# NSPEC     = 1
# NTIME     = 0
# NSAMPLES  = 0
# EPEAK     = 4.10875183718
# ERMS      = 0.995973393526
# EMJD      = 58568.808999981004 
# REFCHAN   = 1024.0
# REFSAMPL  = 256.0
# NAVE      = 50
# NMEDIAN   = 1024
# Fft_rate  = 5000
# UTC       = 2020-06-07 20:00:25.729850
# SECONDS   =       0.0000000000 
# LST       = 09:16:22.180
# AZ        = 180.0
# EL        = 90.0
# TELLON    = -57:41:09.900
# TELLAT    = +47:39:13.800
# RA        = 09:13:39.300
# DEC       = +47:49:12.800
# GALLON    = 171:32:20.60
# GALLAT    = +43:15:57.60
# ALT_SUN   = +34:54:54.1
# AZ_SUN    = +266:25:18.0
# ETAA      = 0.8
# ETAB      = 0.99
# POLANGLE  = 0.0
# TELSIZEAM = 1.0
# TELSIZEBM = 1.0
# AST_VERS  = 05.01
0000 1420250610 7.7456
0001 1420251831 7.6922
0002 1420253051 7.7240
0003 1420254272 7.6790
0004 1420255493 7.6767
0005 1420256713 7.7916
0006 1420257934 7.7355
0007 1420259155 7.7003
0008 1420260375 7.7301
0009 1420261596 7.7380
0010 1420262817 7.7131
0011 1420264038 7.7876
0012 1420265258 7.8341
0013 1420266479 7.8657
0014 1420267700 7.7668
0015 1420268920 7.9231
0016 1420270141 7.9135
0017 1420271362 7.8667
0018 1420272583 7.8260
0019 1420273803 7.8843
0020 1420275024 7.8726
0021 1420276245 7.9069
0022 1420277465 7.9080
0023 1420278686 7.9026
0024 1420279907 7.9933
0025 1420281127 8.0778
0026 1420282348 8.0856
0027 1420283569 8.1944
0028 1420284790 8.2735
0029 1420286010 8.2534
0030 1420287231 8.3517
0031 1420288452 8.2590
0032 1420289672 8.2433
0033 1420290893 8.3177
0034 1420292114 8.2939
0035 1420293334 8.4028
0036 1420294555 8.4225
0037 1420295776 8.4851
0038 1420296997 8.5457
0039 1420298217 8.5271
0040 1420299438 8.5588
0041 1420300659 8.9847
0042 1420301879 8.6334
0043 1420303100 8.7741
0044 1420304321 8.7387
0045 1420305541 8.8578
0046 1420306762 8.7920
0047 1420307983 8.8852
0048 1420309204 8.9111
0049 1420310424 8.8271
0050 1420311645 8.9190
0051 1420312866 9.0950
0052 1420314086 8.9299
0053 1420315307 9.1275
0054 1420316528 9.3332
0055 1420317749 9.2378
0056 1420318969 9.2870
0057 1420320190 9.2649
0058 1420321411 9.3012
0059 1420322631 9.4179
0060 1420323852 9.4435
0061 1420325073 9.4266
0062 1420326293 9.6189
0063 1420327514 9.7154
0064 1420328735 9.6976
0065 1420329956 9.7021
0066 1420331176 9.7672
0067 1420332397 9.8005
0068 1420333618 9.8756
0069 1420334838 9.9134
0070 1420336059 9.9769
0071 1420337280 10.0319
0072 1420338500 9.9939
0073 1420339721 10.2170
0074 1420340942 10.3594
0075 1420342163 10.3422
0076 1420343383 10.2508
0077 1420344604 10.3660
0078 1420345825 10.2999
0079 1420347045 10.4902
0080 1420348266 10.5440
0081 1420349487 10.5970
0082 1420350708 10.6331
0083 1420351928 10.5470
0084 1420353149 10.5952
0085 1420354370 10.7063
0086 1420355590 10.8574
0087 1420356811 11.1417
0088 1420358032 10.8910
0089 1420359252 11.1020
0090 1420360473 11.2689
0091 1420361694 11.2085
0092 1420362915 11.2484
0093 1420364135 11.2446
0094 1420365356 11.4270
0095 1420366577 11.1730
0096 1420367797 11.3966
0097 1420369018 11.6595
0098 1420370239 11.7800
0099 1420371459 11.7862
0100 1420372680 11.8268
0101 1420373901 11.8536
0102 1420375122 11.8078
0103 1420376342 11.9992
0104 1420377563 11.9471
0105 1420378784 12.1427
0106 1420380004 12.4103
0107 1420381225 12.2514
0108 1420382446 12.4144
0109 1420383666 12.3053
0110 1420384887 12.3522
0111 1420386108 12.7055
0112 1420387329 12.8743
0113 1420388549 12.8547
0114 1420389770 12.8883
0115 1420390991 12.9377
0116 1420392211 13.1406
0117 1420393432 13.2241
0118 1420394653 13.1877
0119 1420395874 13.1561
0120 1420397094 13.2995
0121 1420398315 13.4627
0122 1420399536 13.3829
0123 1420400756 13.6019
0124 1420401977 13.6765
0125 1420403198 13.7599
0126 1420404418 14.2038
0127 1420405639 14.1478
0128 1420406860 13.9297
0129 1420408081 14.0798
0130 1420409301 14.0759
0131 1420410522 14.3951
0132 1420411743 14.2336
0133 1420412963 14.5677
0134 1420414184 14.4935
0135 1420415405 14.7655
0136 1420416625 15.0917
0137 1420417846 14.7432
0138 1420419067 14.7902
0139 1420420288 14.9282
0140 1420421508 15.1126
0141 1420422729 15.2443
0142 1420423950 15.4535
0143 1420425170 15.0990
0144 1420426391 15.4376
0145 1420427612 15.4134
0146 1420428833 15.4443
0147 1420430053 15.2607
0148 1420431274 15.9113
0149 1420432495 15.8870
0150 1420433715 16.1649
0151 1420434936 16.2846
0152 1420436157 16.0632
0153 1420437377 16.2133
0154 1420438598 16.3261
0155 1420439819 16.5395
0156 1420441040 16.3464
0157 1420442260 16.6101
0158 1420443481 16.8074
0159 1420444702 16.9858
0160 1420445922 16.8028
0161 1420447143 16.8625
0162 1420448364 16.9134
0163 1420449584 17.1014
0164 1420450805 17.3364
0165 1420452026 17.7256
0166 1420453247 17.6363
0167 1420454467 17.5495
0168 1420455688 17.7269
0169 1420456909 17.8193
0170 1420458129 17.9747
0171 1420459350 18.1658
0172 1420460571 18.0821
0173 1420461791 18.3015
0174 1420463012 18.3233
0175 1420464233 18.3006
0176 1420465454 18.4903
0177 1420466674 18.6785
0178 1420467895 18.6406
0179 1420469116 18.6853
0180 1420470336 18.7857
0181 1420471557 19.0121
0182 1420472778 19.0912
0183 1420473999 19.0670
0184 1420475219 19.1444
0185 1420476440 19.5324
0186 1420477661 19.6645
0187 1420478881 19.3842
0188 1420480102 19.7192
0189 1420481323 19.8569
0190 1420482543 19.7979
0191 1420483764 19.9186
0192 1420484985 20.0016
0193 1420486206 19.9125
0194 1420487426 20.0186
0195 1420488647 20.3627
0196 1420489868 20.5400
0197 1420491088 20.7198
0198 1420492309 20.4379
0199 1420493530 20.5399
0200 1420494750 20.8027
0201 1420495971 21.2728
0202 1420497192 21.2797
0203 1420498413 21.7746
0204 1420499633 22.5264
0205 1420500854 21.2853
0206 1420502075 21.2483
0207 1420503295 21.3720
0208 1420504516 21.7254
0209 1420505737 21.5521
0210 1420506958 21.8918
0211 1420508178 21.7838
0212 1420509399 22.0360
0213 1420510620 22.0464
0214 1420511840 22.1855
0215 1420513061 22.3349
0216 1420514282 22.6927
0217 1420515502 22.4931
0218 1420516723 22.4618
0219 1420517944 22.7416
0220 1420519165 22.7779
0221 1420520385 22.6528
0222 1420521606 23.0612
0223 1420522827 23.0985
0224 1420524047 23.1760
0225 1420525268 23.3011
0226 1420526489 23.2221
0227 1420527709 23.3158
0228 1420528930 23.3914
0229 1420530151 23.5340
0230 1420531372 23.3967
0231 1420532592 23.7212
0232 1420533813 24.1143
0233 1420535034 23.9035
0234 1420536254 24.1211
0235 1420537475 24.5817
0236 1420538696 24.4951
0237 1420539916 24.4920
0238 1420541137 24.1602
0239 1420542358 24.9595
0240 1420543579 24.8319
0241 1420544799 24.6176
0242 1420546020 24.8802
0243 1420547241 25.0088
0244 1420548461 25.0691
0245 1420549682 24.9596
0246 1420550903 24.9902
0247 1420552124 25.1149
0248 1420553344 25.6337
0249 1420554565 25.3671
0250 1420555786 25.5173
0251 1420557006 25.3884
0252 1420558227 25.4365
0253 1420559448 25.6111
0254 1420560668 25.9770
0255 1420561889 26.1651
0256 1420563110 26.0968
0257 1420564331 26.3412
0258 1420565551 26.0912
0259 1420566772 26.2213
0260 1420567993 26.4917
0261 1420569213 26.5697
0262 1420570434 26.6093
0263 1420571655 26.7301
0264 1420572875 26.8586
0265 1420574096 27.0926
0266 1420575317 27.0929
0267 1420576538 27.1629
0268 1420577758 27.1530
0269 1420578979 27.0896
0270 1420580200 27.1645
0271 1420581420 27.5617
0272 1420582641 27.4657
0273 1420583862 27.7877
0274 1420585083 27.5724
0275 1420586303 28.2150
0276 1420587524 27.9052
0277 1420588745 27.6702
0278 1420589965 27.8915
0279 1420591186 28.1267
0280 1420592407 28.0861
0281 1420593627 28.2541
0282 1420594848 28.6954
0283 1420596069 28.4040
0284 1420597290 29.0554
0285 1420598510 28.6097
0286 1420599731 29.1458
0287 1420600952 29.1875
0288 1420602172 28.4698
0289 1420603393 29.0838
0290 1420604614 29.1240
0291 1420605834 29.1666
0292 1420607055 29.4522
0293 1420608276 29.3221
0294 1420609497 29.6049
0295 1420610717 29.7756
0296 1420611938 29.6413
0297 1420613159 29.2467
0298 1420614379 29.9757
0299 1420615600 29.5818
0300 1420616821 29.5779
0301 1420618041 29.7131
0302 1420619262 29.8285
0303 1420620483 29.3568
0304 1420621704 30.1466
0305 1420622924 30.1842
0306 1420624145 30.1009
0307 1420625366 30.7297
0308 1420626586 30.0397
0309 1420627807 30.3959
0310 1420629028 30.6336
0311 1420630249 30.6475
0312 1420631469 30.4813
0313 1420632690 30.8482
0314 1420633911 31.5361
0315 1420635131 33.1718
0316 1420636352 30.8795
0317 1420637573 30.8884
0318 1420638793 31.0091
0319 1420640014 30.6434
0320 1420641235 31.5638
0321 1420642456 31.3353
0322 1420643676 31.3059
0323 1420644897 31.5209
0324 1420646118 31.4460
0325 1420647338 31.0699
0326 1420648559 31.7345
0327 1420649780 31.3000
0328 1420651000 31.4372
0329 1420652221 32.0418
0330 1420653442 31.7030
0331 1420654663 31.3589
0332 1420655883 31.8854
0333 1420657104 32.1151
0334 1420658325 32.2217
0335 1420659545 31.5608
0336 1420660766 31.6108
0337 1420661987 31.9350
0338 1420663208 32.4052
0339 1420664428 32.5572
0340 1420665649 32.1725
0341 1420666870 32.4374
0342 1420668090 32.6010
0343 1420669311 32.2013
0344 1420670532 32.2474
0345 1420671752 32.7705
0346 1420672973 32.3704
0347 1420674194 32.5518
0348 1420675415 33.2420
0349 1420676635 32.7556
0350 1420677856 32.1788
0351 1420679077 33.2798
0352 1420680297 32.8295
0353 1420681518 32.3977
0354 1420682739 33.0034
0355 1420683959 33.0872
0356 1420685180 33.4052
0357 1420686401 33.2370
0358 1420687622 33.2738
0359 1420688842 33.2838
0360 1420690063 33.0083
0361 1420691284 33.3810
0362 1420692504 33.4276
0363 1420693725 33.3994
0364 1420694946 33.6397
0365 1420696166 33.6938
0366 1420697387 33.5510
0367 1420698608 33.2901
0368 1420699829 33.6460
0369 1420701049 33.5509
0370 1420702270 33.6122
0371 1420703491 33.4753
0372 1420704711 33.8389
0373 1420705932 33.8767
0374 1420707153 33.8667
0375 1420708374 33.9023
0376 1420709594 33.3756
0377 1420710815 34.0385
0378 1420712036 34.1265
0379 1420713256 34.2437
0380 1420714477 34.3124
0381 1420715698 34.2334
0382 1420716918 34.2967
0383 1420718139 34.5185
0384 1420719360 33.9475
0385 1420720581 34.5740
0386 1420721801 34.1953
0387 1420723022 34.4334
0388 1420724243 34.2446
0389 1420725463 34.1001
0390 1420726684 34.5907
0391 1420727905 35.1502
0392 1420729125 34.8137
0393 1420730346 34.1210
0394 1420731567 34.4357
0395 1420732788 35.0097
0396 1420734008 34.9387
0397 1420735229 34.5819
0398 1420736450 34.9850
0399 1420737670 35.2092
0400 1420738891 35.3360
0401 1420740112 34.5701
0402 1420741333 34.6218
0403 1420742553 33.8137
0404 1420743774 34.8258
0405 1420744995 34.7753
0406 1420746215 34.7213
0407 1420747436 34.2768
0408 1420748657 34.5316
0409 1420749877 34.9876
0410 1420751098 35.1574
0411 1420752319 34.2768
0412 1420753540 34.9886
0413 1420754760 35.1414
0414 1420755981 34.9686
0415 1420757202 34.9024
0416 1420758422 34.7815
0417 1420759643 34.5751
0418 1420760864 34.9679
0419 1420762084 35.4373
0420 1420763305 35.0163
0421 1420764526 35.0130
0422 1420765747 34.9492
0423 1420766967 34.8222
0424 1420768188 35.2070
0425 1420769409 35.4045
0426 1420770629 34.6303
0427 1420771850 34.8275
0428 1420773071 34.6624
0429 1420774291 35.2709
0430 1420775512 35.1093
0431 1420776733 35.1860
0432 1420777954 35.0324
0433 1420779174 35.6320
0434 1420780395 35.3531
0435 1420781616 35.3767
0436 1420782836 35.3380
0437 1420784057 35.3452
0438 1420785278 35.0518
0439 1420786499 35.6190
0440 1420787719 35.5818
0441 1420788940 35.3818
0442 1420790161 35.2937
0443 1420791381 35.1557
0444 1420792602 35.1428
0445 1420793823 35.0194
0446 1420795043 35.5552
0447 1420796264 35.2127
0448 1420797485 35.5428
0449 1420798706 35.4387
0450 1420799926 37.2660
0451 1420801147 37.4200
0452 1420802368 35.3406
0453 1420803588 38.6573
0454 1420804809 43.4019
0455 1420806030 36.1720
0456 1420807250 35.7177
0457 1420808471 35.9494
0458 1420809692 35.6011
0459 1420810913 35.4991
0460 1420812133 35.3660
0461 1420813354 35.3436
0462 1420814575 35.4537
0463 1420815795 35.3062
0464 1420817016 35.2838
0465 1420818237 35.2038
0466 1420819458 35.7400
0467 1420820678 35.3825
0468 1420821899 35.7802
0469 1420823120 35.8241
0470 1420824340 35.7545
0471 1420825561 35.7478
0472 1420826782 35.5868
0473 1420828002 35.5831
0474 1420829223 35.4174
0475 1420830444 35.4773
0476 1420831665 35.8007
0477 1420832885 35.5832
0478 1420834106 35.1801
0479 1420835327 35.6168
0480 1420836547 35.7725
0481 1420837768 35.8371
0482 1420838989 35.5164
0483 1420840209 35.6944
0484 1420841430 35.6193
0485 1420842651 35.8659
0486 1420843872 35.2887
0487 1420845092 35.2818
0488 1420846313 35.2474
0489 1420847534 35.7416
0490 1420848754 35.5305
0491 1420849975 35.2205
0492 1420851196 35.1159
0493 1420852416 35.4317
0494 1420853637 35.4026
0495 1420854858 35.6086
0496 1420856079 35.9954
0497 1420857299 35.8056
0498 1420858520 35.9038
0499 1420859741 35.1728
0500 1420860961 35.3239
0501 1420862182 35.8381
0502 1420863403 35.4716
0503 1420864624 35.5431
0504 1420865844 35.5271
0505 1420867065 35.8603
0506 1420868286 35.1194
0507 1420869506 35.0266
0508 1420870727 35.5407
0509 1420871948 35.6051
0510 1420873168 35.1880
0511 1420874389 35.2362
0512 1420875610 35.6632
0513 1420876831 35.6216
0514 1420878051 35.3207
0515 1420879272 35.8298
0516 1420880493 35.2720
0517 1420881713 35.0093
0518 1420882934 35.6669
0519 1420884155 35.3905
0520 1420885375 35.4598
0521 1420886596 35.4064
0522 1420887817 35.8203
0523 1420889038 35.4482
0524 1420890258 35.3841
0525 1420891479 35.8324
0526 1420892700 35.5338
0527 1420893920 35.4365
0528 1420895141 35.4164
0529 1420896362 35.4654
0530 1420897583 35.3045
0531 1420898803 34.6043
0532 1420900024 35.7141
0533 1420901245 35.3460
0534 1420902465 35.6699
0535 1420903686 35.2401
0536 1420904907 35.1076
0537 1420906127 34.9593
0538 1420907348 35.2081
0539 1420908569 35.4289
0540 1420909790 35.0016
0541 1420911010 35.2505
0542 1420912231 35.3872
0543 1420913452 35.4008
0544 1420914672 35.7468
0545 1420915893 35.4051
0546 1420917114 35.4865
0547 1420918334 35.1622
0548 1420919555 35.1205
0549 1420920776 35.7958
0550 1420921997 35.3026
0551 1420923217 35.1866
0552 1420924438 35.1694
0553 1420925659 35.2206
0554 1420926879 35.1341
0555 1420928100 35.6212
0556 1420929321 34.6993
0557 1420930541 34.8588
0558 1420931762 35.3930
0559 1420932983 34.7479
0560 1420934204 34.7476
0561 1420935424 34.8141
0562 1420936645 34.7348
0563 1420937866 35.2171
0564 1420939086 35.4255
0565 1420940307 34.8014
0566 1420941528 34.9573
0567 1420942749 34.9440
0568 1420943969 35.2355
0569 1420945190 35.4099
0570 1420946411 34.8188
0571 1420947631 35.5765
0572 1420948852 34.8386
0573 1420950073 34.8278
0574 1420951293 34.8178
0575 1420952514 35.2273
0576 1420953735 35.1617
0577 1420954956 34.9739
0578 1420956176 34.9070
0579 1420957397 35.1365
0580 1420958618 34.9473
0581 1420959838 34.8578
0582 1420961059 35.4557
0583 1420962280 35.1264
0584 1420963500 34.8929
0585 1420964721 34.4884
0586 1420965942 34.8825
0587 1420967163 35.2402
0588 1420968383 34.7692
0589 1420969604 35.1523
0590 1420970825 34.8694
0591 1420972045 34.7824
0592 1420973266 34.9176
0593 1420974487 34.7512
0594 1420975708 34.9145
0595 1420976928 34.9704
0596 1420978149 34.5584
0597 1420979370 35.0711
0598 1420980590 35.1791
0599 1420981811 34.4813
0600 1420983032 34.8747
0601 1420984252 34.8056
0602 1420985473 35.1935
0603 1420986694 35.1321
0604 1420987915 34.6252
0605 1420989135 34.9525
0606 1420990356 34.6733
0607 1420991577 35.1463
0608 1420992797 34.8245
0609 1420994018 35.0040
0610 1420995239 34.9826
0611 1420996459 35.5634
0612 1420997680 35.8023
0613 1420998901 35.4379
0614 1421000122 35.4021
0615 1421001342 35.1699
0616 1421002563 35.3089
0617 1421003784 35.1555
0618 1421005004 34.8002
0619 1421006225 34.4885
0620 1421007446 35.0248
0621 1421008666 35.3754
0622 1421009887 34.5819
0623 1421011108 35.1336
0624 1421012329 35.0781
0625 1421013549 34.7871
0626 1421014770 34.7628
0627 1421015991 35.0764
0628 1421017211 34.9933
0629 1421018432 34.7617
0630 1421019653 34.8253
0631 1421020874 34.6995
0632 1421022094 34.7091
0633 1421023315 34.7607
0634 1421024536 34.7814
0635 1421025756 34.8230
0636 1421026977 34.9839
0637 1421028198 34.6645
0638 1421029418 35.1451
0639 1421030639 34.6555
0640 1421031860 34.7782
0641 1421033081 34.7774
0642 1421034301 35.0306
0643 1421035522 35.0956
0644 1421036743 35.1725
0645 1421037963 35.1104
0646 1421039184 35.0165
0647 1421040405 35.3874
0648 1421041625 34.7280
0649 1421042846 35.0092
0650 1421044067 35.0807
0651 1421045288 34.4433
0652 1421046508 35.1324
0653 1421047729 34.8673
0654 1421048950 35.0398
0655 1421050170 35.1991
0656 1421051391 35.0876
0657 1421052612 34.9604
0658 1421053833 35.2322
0659 1421055053 35.0765
0660 1421056274 34.9332
0661 1421057495 34.9368
0662 1421058715 34.6176
0663 1421059936 35.2376
0664 1421061157 35.2629
0665 1421062377 35.4727
0666 1421063598 35.1292
0667 1421064819 35.2969
0668 1421066040 35.6932
0669 1421067260 35.2519
0670 1421068481 34.9272
0671 1421069702 34.5787
0672 1421070922 34.9988
0673 1421072143 35.3701
0674 1421073364 35.1285
0675 1421074584 35.7777
0676 1421075805 35.2909
0677 1421077026 35.5066
0678 1421078247 35.7095
0679 1421079467 35.6674
0680 1421080688 35.8166
0681 1421081909 35.5574
0682 1421083129 35.6523
0683 1421084350 35.5445
0684 1421085571 35.0186
0685 1421086791 35.4633
0686 1421088012 35.5871
0687 1421089233 35.4789
0688 1421090454 35.8118
0689 1421091674 35.7495
0690 1421092895 35.7966
0691 1421094116 34.7917
0692 1421095336 36.0529
0693 1421096557 35.2481
0694 1421097778 35.7075
0695 1421098999 35.5155
0696 1421100219 35.7917
0697 1421101440 35.8148
0698 1421102661 35.8214
0699 1421103881 35.4161
0700 1421105102 35.5549
0701 1421106323 35.7336
0702 1421107543 35.4793
0703 1421108764 35.8709
0704 1421109985 35.4541
0705 1421111206 35.9086
0706 1421112426 35.4184
0707 1421113647 35.4111
0708 1421114868 36.1823
0709 1421116088 36.1427
0710 1421117309 35.9600
0711 1421118530 36.4022
0712 1421119750 35.9527
0713 1421120971 35.6267
0714 1421122192 35.7941
0715 1421123413 35.7205
0716 1421124633 36.0730
0717 1421125854 35.8042
0718 1421127075 35.6960
0719 1421128295 36.1717
0720 1421129516 36.3922
0721 1421130737 35.8190
0722 1421131958 35.9795
0723 1421133178 36.1230
0724 1421134399 35.7131
0725 1421135620 35.9738
0726 1421136840 36.1195
0727 1421138061 36.6095
0728 1421139282 36.3726
0729 1421140502 36.0726
0730 1421141723 36.6132
0731 1421142944 35.9863
0732 1421144165 35.8704
0733 1421145385 35.9413
0734 1421146606 36.3325
0735 1421147827 35.8202
0736 1421149047 35.8832
0737 1421150268 36.2825
0738 1421151489 35.9550
0739 1421152709 35.8297
0740 1421153930 36.4672
0741 1421155151 36.3241
0742 1421156372 36.4219
0743 1421157592 36.4481
0744 1421158813 36.2197
0745 1421160034 36.5777
0746 1421161254 36.4246
0747 1421162475 36.6474
0748 1421163696 36.4517
0749 1421164916 36.5676
0750 1421166137 36.8507
0751 1421167358 36.5879
0752 1421168579 37.1260
0753 1421169799 36.8529
0754 1421171020 37.1252
0755 1421172241 36.7351
0756 1421173461 36.6247
0757 1421174682 37.0824
0758 1421175903 36.6646
0759 1421177124 36.8158
0760 1421178344 36.7911
0761 1421179565 36.5763
0762 1421180786 36.5043
0763 1421182006 36.9843
0764 1421183227 37.1349
0765 1421184448 37.3615
0766 1421185668 37.2947
0767 1421186889 36.8970
0768 1421188110 37.6477
0769 1421189331 36.9104
0770 1421190551 37.3866
0771 1421191772 37.7871
0772 1421192993 37.1858
0773 1421194213 37.6927
0774 1421195434 37.2727
0775 1421196655 37.4383
0776 1421197875 37.5213
0777 1421199096 37.2835
0778 1421200317 37.8355
0779 1421201538 37.9149
0780 1421202758 37.3761
0781 1421203979 37.3687
0782 1421205200 38.0828
0783 1421206420 37.7589
0784 1421207641 37.2230
0785 1421208862 37.9634
0786 1421210083 37.9617
0787 1421211303 37.6192
0788 1421212524 38.0359
0789 1421213745 37.6495
0790 1421214965 37.4054
0791 1421216186 38.3330
0792 1421217407 38.2627
0793 1421218627 37.5981
0794 1421219848 37.5772
0795 1421221069 38.0654
0796 1421222290 37.8814
0797 1421223510 37.7685
0798 1421224731 37.4652
0799 1421225952 38.2519
0800 1421227172 38.3681
0801 1421228393 37.9776
0802 1421229614 37.9442
0803 1421230834 38.3883
0804 1421232055 38.0526
0805 1421233276 38.4154
0806 1421234497 38.5597
0807 1421235717 38.3523
0808 1421236938 38.6880
0809 1421238159 38.4134
0810 1421239379 38.6694
0811 1421240600 38.0673
0812 1421241821 37.9184
0813 1421243041 38.1216
0814 1421244262 38.6842
0815 1421245483 38.8973
0816 1421246704 38.6811
0817 1421247924 38.6552
0818 1421249145 38.9321
0819 1421250366 38.3827
0820 1421251586 38.4993
0821 1421252807 39.1777
0822 1421254028 39.1698
0823 1421255249 39.2366
0824 1421256469 38.6369
0825 1421257690 39.7086
0826 1421258911 38.8615
0827 1421260131 39.1387
0828 1421261352 39.1981
0829 1421262573 38.8866
0830 1421263793 39.5891
0831 1421265014 38.8513
0832 1421266235 38.7870
0833 1421267456 38.9697
0834 1421268676 39.4941
0835 1421269897 39.2982
0836 1421271118 39.3156
0837 1421272338 39.2215
0838 1421273559 40.0858
0839 1421274780 39.5485
0840 1421276000 39.1548
0841 1421277221 39.3583
0842 1421278442 40.2154
0843 1421279663 39.6651
0844 1421280883 40.4921
0845 1421282104 39.6639
0846 1421283325 39.7350
0847 1421284545 39.8912
0848 1421285766 40.1774
0849 1421286987 39.4680
0850 1421288208 40.2139
0851 1421289428 40.5385
0852 1421290649 40.4620
0853 1421291870 39.3602
0854 1421293090 40.0910
0855 1421294311 40.2414
0856 1421295532 40.2254
0857 1421296752 40.4646
0858 1421297973 40.1902
0859 1421299194 39.7962
0860 1421300415 39.9459
0861 1421301635 40.1801
0862 1421302856 40.2623
0863 1421304077 40.5869
0864 1421305297 40.5333
0865 1421306518 40.2128
0866 1421307739 40.5340
0867 1421308959 40.1692
0868 1421310180 40.1611
0869 1421311401 40.6727
0870 1421312622 40.8005
0871 1421313842 40.6480
0872 1421315063 40.5634
0873 1421316284 40.7378
0874 1421317504 39.9498
0875 1421318725 40.2592
0876 1421319946 40.3788
0877 1421321166 39.9843
0878 1421322387 40.6759
0879 1421323608 40.6980
0880 1421324829 41.0244
0881 1421326049 41.1027
0882 1421327270 40.7248
0883 1421328491 40.7331
0884 1421329711 41.0638
0885 1421330932 40.8605
0886 1421332153 40.8991
0887 1421333374 41.4548
0888 1421334594 41.1465
0889 1421335815 40.9166
0890 1421337036 41.1016
0891 1421338256 40.9742
0892 1421339477 40.8777
0893 1421340698 41.3556
0894 1421341918 41.6240
0895 1421343139 42.1034
0896 1421344360 41.8542
0897 1421345581 41.6565
0898 1421346801 41.2035
0899 1421348022 41.3927
0900 1421349243 41.9933
0901 1421350463 42.0150
0902 1421351684 41.6908
0903 1421352905 42.0549
0904 1421354125 42.0441
0905 1421355346 41.7526
0906 1421356567 41.3291
0907 1421357788 41.7373
0908 1421359008 41.4947
0909 1421360229 41.6993
0910 1421361450 42.1777
0911 1421362670 41.7670
0912 1421363891 42.4076
0913 1421365112 42.4166
0914 1421366333 41.6371
0915 1421367553 41.8820
0916 1421368774 42.4595
0917 1421369995 42.3025
0918 1421371215 41.7084
0919 1421372436 41.7382
0920 1421373657 41.7386
0921 1421374877 42.3329
0922 1421376098 42.6289
0923 1421377319 41.7900
0924 1421378540 42.3006
0925 1421379760 41.7596
0926 1421380981 42.6995
0927 1421382202 42.4808
0928 1421383422 42.9873
0929 1421384643 42.5103
0930 1421385864 41.9941
0931 1421387084 42.3469
0932 1421388305 42.1407
0933 1421389526 42.5350
0934 1421390747 42.5345
0935 1421391967 42.6844
0936 1421393188 42.5617
0937 1421394409 42.5959
0938 1421395629 42.5206
0939 1421396850 42.6892
0940 1421398071 42.6888
0941 1421399291 42.3178
0942 1421400512 42.6509
0943 1421401733 42.6853
0944 1421402954 43.1330
0945 1421404174 43.6385
0946 1421405395 42.9366
0947 1421406616 43.1205
0948 1421407836 42.6886
0949 1421409057 42.3145
0950 1421410278 43.1462
0951 1421411499 42.9417
0952 1421412719 43.0175
0953 1421413940 43.0368
0954 1421415161 42.6945
0955 1421416381 43.2269
0956 1421417602 42.6291
0957 1421418823 42.3734
0958 1421420043 42.7275
0959 1421421264 43.1603
0960 1421422485 43.1091
0961 1421423706 42.9947
0962 1421424926 43.2276
0963 1421426147 42.7567
0964 1421427368 42.6458
0965 1421428588 43.3266
0966 1421429809 43.0086
0967 1421431030 42.6306
0968 1421432250 43.5096
0969 1421433471 43.6904
0970 1421434692 43.5084
0971 1421435913 43.3454
0972 1421437133 43.2098
0973 1421438354 43.2230
0974 1421439575 43.3250
0975 1421440795 43.6302
0976 1421442016 43.7840
0977 1421443237 43.4441
0978 1421444458 43.4558
0979 1421445678 44.0626
0980 1421446899 43.3242
0981 1421448120 43.2763
0982 1421449340 43.9340
0983 1421450561 43.0098
0984 1421451782 43.5956
0985 1421453002 43.5869
0986 1421454223 43.6437
0987 1421455444 44.5585
0988 1421456665 43.7708
0989 1421457885 44.0165
0990 1421459106 43.9277
0991 1421460327 43.4708
0992 1421461547 44.2105
0993 1421462768 44.3533
0994 1421463989 44.0353
0995 1421465209 44.1044
0996 1421466430 44.0494
0997 1421467651 44.0906
0998 1421468872 44.3273
0999 1421470092 44.3449
1000 1421471313 44.4518
1001 1421472534 43.7888
1002 1421473754 44.2634
1003 1421474975 44.6912
1004 1421476196 44.2703
1005 1421477416 44.3768
1006 1421478637 45.2201
1007 1421479858 45.0975
1008 1421481079 43.8910
1009 1421482299 44.5841
1010 1421483520 45.1114
1011 1421484741 44.5513
1012 1421485961 44.9858
1013 1421487182 44.2411
1014 1421488403 45.0146
1015 1421489624 45.1034
1016 1421490844 45.5541
1017 1421492065 45.9720
1018 1421493286 46.3186
1019 1421494506 46.6959
1020 1421495727 47.3974
1021 1421496948 47.6584
1022 1421498168 49.3301
1023 1421499389 49.9782
1024 1421500610 45.5160
1025 1421501831 49.9372
1026 1421503051 49.5569
1027 1421504272 48.5009
1028 1421505493 47.3602
1029 1421506713 46.6629
1030 1421507934 46.0917
1031 1421509155 46.0668
1032 1421510375 46.0861
1033 1421511596 45.6316
1034 1421512817 44.6755
1035 1421514038 45.3459
1036 1421515258 45.4206
1037 1421516479 44.9445
1038 1421517700 44.7402
1039 1421518920 44.5687
1040 1421520141 44.4969
1041 1421521362 44.7282
1042 1421522583 44.1805
1043 1421523803 44.7847
1044 1421525024 44.2932
1045 1421526245 44.1775
1046 1421527465 44.4785
1047 1421528686 44.0245
1048 1421529907 44.2109
1049 1421531127 44.3225
1050 1421532348 43.9604
1051 1421533569 43.9614
1052 1421534790 43.7975
1053 1421536010 43.9514
1054 1421537231 44.6205
1055 1421538452 44.3215
1056 1421539672 44.4295
1057 1421540893 44.2814
1058 1421542114 44.7373
1059 1421543334 43.6934
1060 1421544555 43.4558
1061 1421545776 44.1583
1062 1421546997 44.1210
1063 1421548217 44.0534
1064 1421549438 44.2536
1065 1421550659 43.8702
1066 1421551879 44.0480
1067 1421553100 44.7723
1068 1421554321 44.2062
1069 1421555541 43.6006
1070 1421556762 43.6834
1071 1421557983 44.0340
1072 1421559204 43.3717
1073 1421560424 43.5262
1074 1421561645 43.5014
1075 1421562866 43.4729
1076 1421564086 43.7489
1077 1421565307 43.7241
1078 1421566528 43.5410
1079 1421567749 43.2040
1080 1421568969 43.8301
1081 1421570190 43.4298
1082 1421571411 43.7617
1083 1421572631 43.5410
1084 1421573852 43.4542
1085 1421575073 43.4492
1086 1421576293 43.1881
1087 1421577514 43.7486
1088 1421578735 43.1795
1089 1421579956 43.4952
1090 1421581176 43.1754
1091 1421582397 43.4917
1092 1421583618 43.6814
1093 1421584838 43.2676
1094 1421586059 43.3566
1095 1421587280 43.3959
1096 1421588500 43.3110
1097 1421589721 43.0785
1098 1421590942 43.7227
1099 1421592163 44.3751
1100 1421593383 43.2109
1101 1421594604 43.2277
1102 1421595825 43.0537
1103 1421597045 42.9697
1104 1421598266 43.3037
1105 1421599487 43.4700
1106 1421600708 42.8222
1107 1421601928 43.2319
1108 1421603149 43.0673
1109 1421604370 43.3334
1110 1421605590 43.2424
1111 1421606811 43.1697
1112 1421608032 43.2749
1113 1421609252 43.3066
1114 1421610473 43.9279
1115 1421611694 43.0088
1116 1421612915 43.1817
1117 1421614135 42.9756
1118 1421615356 43.0110
1119 1421616577 42.6480
1120 1421617797 42.6302
1121 1421619018 42.8423
1122 1421620239 42.6864
1123 1421621459 42.3203
1124 1421622680 42.9648
1125 1421623901 42.8635
1126 1421625122 42.7552
1127 1421626342 42.8960
1128 1421627563 42.0468
1129 1421628784 42.2180
1130 1421630004 42.8073
1131 1421631225 42.5445
1132 1421632446 41.8765
1133 1421633666 42.1029
1134 1421634887 42.3313
1135 1421636108 42.8849
1136 1421637329 42.4794
1137 1421638549 42.9376
1138 1421639770 42.3630
1139 1421640991 42.5519
1140 1421642211 42.0836
1141 1421643432 41.9052
1142 1421644653 42.6312
1143 1421645874 42.5810
1144 1421647094 41.8998
1145 1421648315 41.8266
1146 1421649536 42.1548
1147 1421650756 42.0240
1148 1421651977 42.5925
1149 1421653198 41.9713
1150 1421654418 42.5149
1151 1421655639 41.9526
1152 1421656860 42.0058
1153 1421658081 41.8146
1154 1421659301 41.9483
1155 1421660522 42.0133
1156 1421661743 41.7581
1157 1421662963 42.5358
1158 1421664184 42.3360
1159 1421665405 41.3133
1160 1421666625 41.5114
1161 1421667846 41.6744
1162 1421669067 41.8493
1163 1421670288 41.5140
1164 1421671508 41.4468
1165 1421672729 41.4461
1166 1421673950 41.4068
1167 1421675170 41.4344
1168 1421676391 41.3333
1169 1421677612 41.4962
1170 1421678833 41.2456
1171 1421680053 41.5236
1172 1421681274 41.7080
1173 1421682495 41.2530
1174 1421683715 40.9759
1175 1421684936 40.9501
1176 1421686157 41.1537
1177 1421687377 41.7228
1178 1421688598 40.8209
1179 1421689819 40.8975
1180 1421691040 40.7323
1181 1421692260 40.5854
1182 1421693481 40.5674
1183 1421694702 41.4189
1184 1421695922 41.8654
1185 1421697143 40.9318
1186 1421698364 40.6398
1187 1421699584 41.1910
1188 1421700805 40.1182
1189 1421702026 40.5768
1190 1421703247 40.7488
1191 1421704467 40.9584
1192 1421705688 40.7398
1193 1421706909 40.7460
1194 1421708129 40.7062
1195 1421709350 40.5597
1196 1421710571 40.6074
1197 1421711791 40.8306
1198 1421713012 40.4275
1199 1421714233 40.3478
1200 1421715454 40.2663
1201 1421716674 39.9681
1202 1421717895 40.1460
1203 1421719116 40.2037
1204 1421720336 40.4056
1205 1421721557 39.9652
1206 1421722778 40.4529
1207 1421723999 40.1884
1208 1421725219 39.9077
1209 1421726440 40.4747
1210 1421727661 40.1994
1211 1421728881 40.0181
1212 1421730102 40.2856
1213 1421731323 40.2712
1214 1421732543 39.8577
1215 1421733764 39.7517
1216 1421734985 40.0065
1217 1421736206 39.9101
1218 1421737426 40.0995
1219 1421738647 39.5347
1220 1421739868 39.5951
1221 1421741088 40.1211
1222 1421742309 39.6092
1223 1421743530 39.6473
1224 1421744750 39.8918
1225 1421745971 40.5216
1226 1421747192 40.0342
1227 1421748413 39.5198
1228 1421749633 38.9819
1229 1421750854 39.1700
1230 1421752075 39.2274
1231 1421753295 39.6091
1232 1421754516 39.5016
1233 1421755737 39.3489
1234 1421756958 39.9645
1235 1421758178 39.2468
1236 1421759399 39.3050
1237 1421760620 39.1859
1238 1421761840 39.3442
1239 1421763061 38.9861
1240 1421764282 39.7415
1241 1421765502 39.6381
1242 1421766723 38.8123
1243 1421767944 38.7701
1244 1421769165 38.9227
1245 1421770385 39.3059
1246 1421771606 38.8016
1247 1421772827 38.6945
1248 1421774047 38.4540
1249 1421775268 39.0488
1250 1421776489 38.6504
1251 1421777709 38.7941
1252 1421778930 39.0743
1253 1421780151 38.6611
1254 1421781372 37.8541
1255 1421782592 38.1814
1256 1421783813 38.5170
1257 1421785034 38.7282
1258 1421786254 38.7144
1259 1421787475 38.3216
1260 1421788696 38.5897
1261 1421789916 38.8623
1262 1421791137 38.1958
1263 1421792358 38.3760
1264 1421793579 38.2209
1265 1421794799 38.1282
1266 1421796020 37.7820
1267 1421797241 38.3575
1268 1421798461 37.9927
1269 1421799682 38.1512
1270 1421800903 38.0750
1271 1421802124 38.1973
1272 1421803344 38.6716
1273 1421804565 38.5677
1274 1421805786 39.6462
1275 1421807006 47.5059
1276 1421808227 41.6273
1277 1421809448 38.4479
1278 1421810668 37.7191
1279 1421811889 38.1257
1280 1421813110 37.7643
1281 1421814331 38.1277
1282 1421815551 37.8745
1283 1421816772 38.3313
1284 1421817993 37.9472
1285 1421819213 37.4159
1286 1421820434 37.6592
1287 1421821655 37.5832
1288 1421822875 37.6430
1289 1421824096 37.5621
1290 1421825317 37.7433
1291 1421826538 37.2636
1292 1421827758 38.2397
1293 1421828979 37.7081
1294 1421830200 37.0129
1295 1421831420 37.6476
1296 1421832641 37.6060
1297 1421833862 37.6953
1298 1421835083 37.8425
1299 1421836303 37.2913
1300 1421837524 37.5748
1301 1421838745 36.9934
1302 1421839965 36.9281
1303 1421841186 37.3115
1304 1421842407 37.1147
1305 1421843627 36.8985
1306 1421844848 37.3734
1307 1421846069 37.4908
1308 1421847290 37.2590
1309 1421848510 37.3731
1310 1421849731 36.8462
1311 1421850952 37.0549
1312 1421852172 37.3103
1313 1421853393 37.7479
1314 1421854614 37.2339
1315 1421855834 37.1905
1316 1421857055 37.3543
1317 1421858276 37.1021
1318 1421859497 37.0033
1319 1421860717 37.1991
1320 1421861938 37.1689
1321 1421863159 37.3900
1322 1421864379 37.9386
1323 1421865600 37.9509
1324 1421866821 38.6242
1325 1421868041 39.0897
1326 1421869262 38.5689
1327 1421870483 37.6559
1328 1421871704 36.9509
1329 1421872924 37.2326
1330 1421874145 37.4157
1331 1421875366 37.0662
1332 1421876586 36.8958
1333 1421877807 36.9107
1334 1421879028 36.5800
1335 1421880249 36.4020
1336 1421881469 36.3359
1337 1421882690 36.6923
1338 1421883911 36.7572
1339 1421885131 37.1457
1340 1421886352 36.3365
1341 1421887573 36.6791
1342 1421888793 36.9569
1343 1421890014 37.1934
1344 1421891235 37.0105
1345 1421892456 36.4445
1346 1421893676 36.0289
1347 1421894897 36.6185
1348 1421896118 36.5213
1349 1421897338 36.7254
1350 1421898559 36.8266
1351 1421899780 36.9693
1352 1421901000 36.3447
1353 1421902221 36.8370
1354 1421903442 36.5147
1355 1421904663 37.0153
1356 1421905883 36.6872
1357 1421907104 36.7007
1358 1421908325 36.7676
1359 1421909545 36.4303
1360 1421910766 36.7296
1361 1421911987 36.3878
1362 1421913208 36.3980
1363 1421914428 35.8776
1364 1421915649 36.0809
1365 1421916870 36.4521
1366 1421918090 36.5224
1367 1421919311 36.2863
1368 1421920532 36.3717
1369 1421921752 36.4360
1370 1421922973 36.3820
1371 1421924194 36.5731
1372 1421925415 36.8034
1373 1421926635 36.7240
1374 1421927856 36.5738
1375 1421929077 36.3448
1376 1421930297 36.3066
1377 1421931518 36.2097
1378 1421932739 36.5417
1379 1421933959 36.4725
1380 1421935180 37.0680
1381 1421936401 36.7062
1382 1421937622 36.3959
1383 1421938842 35.9721
1384 1421940063 36.4886
1385 1421941284 36.3446
1386 1421942504 36.3022
1387 1421943725 36.1715
1388 1421944946 36.2544
1389 1421946166 36.5603
1390 1421947387 35.9378
1391 1421948608 36.2262
1392 1421949829 36.2921
1393 1421951049 36.1327
1394 1421952270 36.0190
1395 1421953491 36.6817
1396 1421954711 36.5555
1397 1421955932 36.7338
1398 1421957153 36.2514
1399 1421958374 35.9035
1400 1421959594 36.1224
1401 1421960815 36.5524
1402 1421962036 36.7106
1403 1421963256 36.3094
1404 1421964477 36.8115
1405 1421965698 36.5216
1406 1421966918 36.5581
1407 1421968139 36.8689
1408 1421969360 36.9047
1409 1421970581 36.5453
1410 1421971801 36.7829
1411 1421973022 36.8374
1412 1421974243 36.4649
1413 1421975463 36.3216
1414 1421976684 37.4393
1415 1421977905 37.8228
1416 1421979125 36.6624
1417 1421980346 36.8233
1418 1421981567 36.8544
1419 1421982788 36.4621
1420 1421984008 36.4181
1421 1421985229 36.3753
1422 1421986450 36.3162
1423 1421987670 36.7836
1424 1421988891 36.6826
1425 1421990112 36.9360
1426 1421991333 35.9685
1427 1421992553 36.4362
1428 1421993774 36.4173
1429 1421994995 36.7549
1430 1421996215 36.5897
1431 1421997436 37.0937
1432 1421998657 36.8347
1433 1421999877 36.9102
1434 1422001098 36.5452
1435 1422002319 37.7203
1436 1422003540 194.9084
1437 1422004760 485.3579
1438 1422005981 73.3143
1439 1422007202 37.3344
1440 1422008422 37.2187
1441 1422009643 36.7064
1442 1422010864 36.4987
1443 1422012084 36.7073
1444 1422013305 36.7224
1445 1422014526 37.1357
1446 1422015747 36.3700
1447 1422016967 36.5576
1448 1422018188 37.0538
1449 1422019409 36.7766
1450 1422020629 36.3460
1451 1422021850 36.5367
1452 1422023071 36.7705
1453 1422024291 36.4746
1454 1422025512 35.8742
1455 1422026733 36.5587
1456 1422027954 36.7293
1457 1422029174 36.2676
1458 1422030395 36.7811
1459 1422031616 36.9892
1460 1422032836 36.8081
1461 1422034057 36.5458
1462 1422035278 36.7851
1463 1422036499 36.5890
1464 1422037719 37.2411
1465 1422038940 37.2324
1466 1422040161 36.7681
1467 1422041381 36.2381
1468 1422042602 36.8718
1469 1422043823 36.5684
1470 1422045043 36.9963
1471 1422046264 36.2948
1472 1422047485 36.5664
1473 1422048706 36.5787
1474 1422049926 36.3633
1475 1422051147 37.2046
1476 1422052368 36.3207
1477 1422053588 36.8432
1478 1422054809 36.8031
1479 1422056030 36.4806
1480 1422057250 36.7208
1481 1422058471 36.6490
1482 1422059692 36.8548
1483 1422060913 36.4029
1484 1422062133 36.8978
1485 1422063354 36.6859
1486 1422064575 36.1542
1487 1422065795 36.4051
1488 1422067016 37.4142
1489 1422068237 37.0650
1490 1422069458 36.6358
1491 1422070678 37.0571
1492 1422071899 37.1404
1493 1422073120 36.6563
1494 1422074340 36.6881
1495 1422075561 36.6319
1496 1422076782 36.8915
1497 1422078002 36.7495
1498 1422079223 36.9621
1499 1422080444 36.6572
1500 1422081665 37.0421
1501 1422082885 36.8889
1502 1422084106 37.0742
1503 1422085327 36.8335
1504 1422086547 36.8978
1505 1422087768 37.0765
1506 1422088989 35.9625
1507 1422090209 36.8218
1508 1422091430 37.0028
1509 1422092651 36.6673
1510 1422093872 36.9057
1511 1422095092 36.4341
1512 1422096313 36.5568
1513 1422097534 36.6659
1514 1422098754 36.6069
1515 1422099975 36.3614
1516 1422101196 36.4510
1517 1422102416 36.8973
1518 1422103637 36.9010
1519 1422104858 37.2288
1520 1422106079 36.6825
1521 1422107299 36.6342
1522 1422108520 37.0080
1523 1422109741 37.3908
1524 1422110961 36.9331
1525 1422112182 36.5216
1526 1422113403 36.9124
1527 1422114624 37.2158
1528 1422115844 36.3695
1529 1422117065 36.8425
1530 1422118286 37.1180
1531 1422119506 37.1840
1532 1422120727 37.5704
1533 1422121948 37.1963
1534 1422123168 36.9193
1535 1422124389 37.2311
1536 1422125610 36.9740
1537 1422126831 36.5163
1538 1422128051 37.0638
1539 1422129272 36.9074
1540 1422130493 36.7520
1541 1422131713 37.3572
1542 1422132934 37.2012
1543 1422134155 37.0519
1544 1422135375 36.8714
1545 1422136596 37.0413
1546 1422137817 36.9424
1547 1422139038 37.2390
1548 1422140258 37.4253
1549 1422141479 37.3897
1550 1422142700 37.0843
1551 1422143920 37.2655
1552 1422145141 37.6965
1553 1422146362 37.6865
1554 1422147583 37.0764
1555 1422148803 37.6240
1556 1422150024 37.3643
1557 1422151245 37.5924
1558 1422152465 37.3774
1559 1422153686 37.0199
1560 1422154907 37.5250
1561 1422156127 37.1759
1562 1422157348 37.0280
1563 1422158569 36.7364
1564 1422159790 37.1765
1565 1422161010 37.6992
1566 1422162231 37.3046
1567 1422163452 36.5116
1568 1422164672 37.2294
1569 1422165893 37.0924
1570 1422167114 37.5373
1571 1422168334 37.1319
1572 1422169555 37.1385
1573 1422170776 36.9449
1574 1422171997 37.4016
1575 1422173217 37.2707
1576 1422174438 37.1757
1577 1422175659 37.7963
1578 1422176879 37.6005
1579 1422178100 37.5033
1580 1422179321 37.6277
1581 1422180541 37.5209
1582 1422181762 37.0494
1583 1422182983 37.9987
1584 1422184204 37.5925
1585 1422185424 37.2377
1586 1422186645 37.3276
1587 1422187866 37.3752
1588 1422189086 37.0721
1589 1422190307 37.1110
1590 1422191528 37.9930
1591 1422192749 37.1484
1592 1422193969 37.0479
1593 1422195190 37.0331
1594 1422196411 37.1774
1595 1422197631 37.0538
1596 1422198852 37.4546
1597 1422200073 38.2624
1598 1422201293 42.9668
1599 1422202514 42.4071
1600 1422203735 38.7168
1601 1422204956 37.5883
1602 1422206176 37.0353
1603 1422207397 37.1918
1604 1422208618 37.3459
1605 1422209838 37.0857
1606 1422211059 37.0942
1607 1422212280 37.4983
1608 1422213500 37.2845
1609 1422214721 36.5981
1610 1422215942 36.9979
1611 1422217163 37.3349
1612 1422218383 37.4656
1613 1422219604 36.9148
1614 1422220825 37.0578
1615 1422222045 36.8120
1616 1422223266 36.7599
1617 1422224487 36.9930
1618 1422225708 36.8253
1619 1422226928 36.7669
1620 1422228149 36.5205
1621 1422229370 36.9051
1622 1422230590 37.1098
1623 1422231811 37.3944
1624 1422233032 37.0423
1625 1422234252 37.1076
1626 1422235473 37.4324
1627 1422236694 36.7528
1628 1422237915 36.8817
1629 1422239135 37.4287
1630 1422240356 37.1660
1631 1422241577 37.2442
1632 1422242797 36.8957
1633 1422244018 36.6855
1634 1422245239 36.8818
1635 1422246459 37.1359
1636 1422247680 36.7312
1637 1422248901 36.9396
1638 1422250122 36.4828
1639 1422251342 36.4814
1640 1422252563 36.6095
1641 1422253784 37.1283
1642 1422255004 36.9683
1643 1422256225 36.9447
1644 1422257446 36.8419
1645 1422258666 36.3579
1646 1422259887 36.5072
1647 1422261108 36.4682
1648 1422262329 36.5560
1649 1422263549 36.3776
1650 1422264770 35.9124
1651 1422265991 36.7378
1652 1422267211 37.1142
1653 1422268432 36.3623
1654 1422269653 36.2660
1655 1422270874 35.8728
1656 1422272094 35.9223
1657 1422273315 36.5027
1658 1422274536 36.1472
1659 1422275756 36.1296
1660 1422276977 35.9931
1661 1422278198 36.3251
1662 1422279418 36.2158
1663 1422280639 36.4937
1664 1422281860 37.0755
1665 1422283081 36.0608
1666 1422284301 35.8945
1667 1422285522 36.2637
1668 1422286743 36.0841
1669 1422287963 36.0054
1670 1422289184 35.4589
1671 1422290405 35.8858
1672 1422291625 35.8794
1673 1422292846 35.8705
1674 1422294067 35.3251
1675 1422295288 35.9908
1676 1422296508 36.0699
1677 1422297729 35.6945
1678 1422298950 36.2901
1679 1422300170 35.6574
1680 1422301391 35.3509
1681 1422302612 35.7679
1682 1422303833 36.1584
1683 1422305053 35.2644
1684 1422306274 35.4818
1685 1422307495 35.3436
1686 1422308715 35.2512
1687 1422309936 34.9508
1688 1422311157 35.0168
1689 1422312377 35.2349
1690 1422313598 35.6888
1691 1422314819 35.6783
1692 1422316040 35.0611
1693 1422317260 35.2900
1694 1422318481 35.8221
1695 1422319702 35.6138
1696 1422320922 34.8017
1697 1422322143 34.9397
1698 1422323364 34.8229
1699 1422324584 34.6266
1700 1422325805 34.8476
1701 1422327026 34.6786
1702 1422328247 33.9718
1703 1422329467 34.6791
1704 1422330688 34.5160
1705 1422331909 34.2074
1706 1422333129 34.3244
1707 1422334350 34.5067
1708 1422335571 34.2768
1709 1422336791 34.1373
1710 1422338012 34.3044
1711 1422339233 33.8499
1712 1422340454 34.0891
1713 1422341674 33.6136
1714 1422342895 33.7210
1715 1422344116 33.6141
1716 1422345336 33.4947
1717 1422346557 33.5098
1718 1422347778 33.6700
1719 1422348999 33.6352
1720 1422350219 33.7349
1721 1422351440 33.6474
1722 1422352661 33.0711
1723 1422353881 32.8268
1724 1422355102 33.1184
1725 1422356323 33.2519
1726 1422357543 33.2060
1727 1422358764 33.0246
1728 1422359985 33.0834
1729 1422361206 33.2287
1730 1422362426 32.6655
1731 1422363647 32.7922
1732 1422364868 32.5419
1733 1422366088 32.4012
1734 1422367309 32.2173
1735 1422368530 32.0642
1736 1422369750 32.3239
1737 1422370971 32.0877
1738 1422372192 32.4600
1739 1422373413 31.7894
1740 1422374633 31.9451
1741 1422375854 31.9450
1742 1422377075 31.9493
1743 1422378295 32.2946
1744 1422379516 31.7059
1745 1422380737 31.8135
1746 1422381958 31.8442
1747 1422383178 31.9633
1748 1422384399 31.5154
1749 1422385620 31.5455
1750 1422386840 31.4346
1751 1422388061 31.3481
1752 1422389282 31.0967
1753 1422390502 31.3139
1754 1422391723 31.1195
1755 1422392944 31.0035
1756 1422394165 30.7473
1757 1422395385 30.9786
1758 1422396606 30.9572
1759 1422397827 30.7067
1760 1422399047 31.2804
1761 1422400268 30.6160
1762 1422401489 30.8582
1763 1422402709 30.1295
1764 1422403930 30.3553
1765 1422405151 30.5507
1766 1422406372 30.2180
1767 1422407592 30.1775
1768 1422408813 30.6807
1769 1422410034 30.0766
1770 1422411254 29.6534
1771 1422412475 29.8452
1772 1422413696 29.1886
1773 1422414916 29.5697
1774 1422416137 29.1657
1775 1422417358 29.5844
1776 1422418579 29.2981
1777 1422419799 29.5045
1778 1422421020 29.2525
1779 1422422241 28.4973
1780 1422423461 28.8910
1781 1422424682 28.4127
1782 1422425903 28.4465
1783 1422427124 28.8452
1784 1422428344 29.0095
1785 1422429565 28.5652
1786 1422430786 28.4684
1787 1422432006 27.9825
1788 1422433227 27.7197
1789 1422434448 28.0800
1790 1422435668 27.7513
1791 1422436889 27.8200
1792 1422438110 28.0306
1793 1422439331 28.2395
1794 1422440551 28.3086
1795 1422441772 27.6139
1796 1422442993 27.3735
1797 1422444213 27.2149
1798 1422445434 27.2847
1799 1422446655 26.7955
1800 1422447875 26.9880
1801 1422449096 26.6156
1802 1422450317 26.7652
1803 1422451538 26.6995
1804 1422452758 26.7970
1805 1422453979 26.3795
1806 1422455200 26.4813
1807 1422456420 26.5419
1808 1422457641 26.1104
1809 1422458862 26.3171
1810 1422460083 26.1667
1811 1422461303 25.7849
1812 1422462524 25.6353
1813 1422463745 25.5985
1814 1422464965 25.5940
1815 1422466186 25.4964
1816 1422467407 24.9187
1817 1422468627 25.2447
1818 1422469848 25.2966
1819 1422471069 25.1582
1820 1422472290 24.9958
1821 1422473510 25.0551
1822 1422474731 24.5909
1823 1422475952 24.6345
1824 1422477172 24.8742
1825 1422478393 24.5064
1826 1422479614 24.1577
1827 1422480834 24.3663
1828 1422482055 24.3594
1829 1422483276 23.9545
1830 1422484497 23.9574
1831 1422485717 23.6373
1832 1422486938 23.9473
1833 1422488159 23.6666
1834 1422489379 23.5277
1835 1422490600 23.2104
1836 1422491821 23.1727
1837 1422493041 23.2326
1838 1422494262 23.1825
1839 1422495483 23.1992
1840 1422496704 23.0348
1841 1422497924 22.7178
1842 1422499145 22.5791
1843 1422500366 22.5458
1844 1422501586 22.4614
1845 1422502807 22.3059
1846 1422504028 22.0493
1847 1422505249 21.7518
1848 1422506469 21.6412
1849 1422507690 22.0111
1850 1422508911 21.6755
1851 1422510131 21.5630
1852 1422511352 21.7285
1853 1422512573 21.2189
1854 1422513793 21.5419
1855 1422515014 21.2268
1856 1422516235 21.0926
1857 1422517456 20.9259
1858 1422518676 20.6821
1859 1422519897 20.7688
1860 1422521118 20.4197
1861 1422522338 20.5150
1862 1422523559 20.5727
1863 1422524780 20.2223
1864 1422526000 20.0472
1865 1422527221 19.9569
1866 1422528442 19.8574
1867 1422529663 19.8552
1868 1422530883 19.8783
1869 1422532104 19.5160
1870 1422533325 19.6771
1871 1422534545 19.5528
1872 1422535766 19.3263
1873 1422536987 19.1103
1874 1422538208 19.2203
1875 1422539428 19.2845
1876 1422540649 18.6056
1877 1422541870 18.8065
1878 1422543090 18.8280
1879 1422544311 18.9160
1880 1422545532 18.3388
1881 1422546752 18.4000
1882 1422547973 18.3194
1883 1422549194 18.1887
1884 1422550415 18.0376
1885 1422551635 18.1892
1886 1422552856 18.0027
1887 1422554077 17.9192
1888 1422555297 17.6754
1889 1422556518 17.5320
1890 1422557739 17.3387
1891 1422558959 17.1086
1892 1422560180 17.2963
1893 1422561401 17.0998
1894 1422562622 17.2376
1895 1422563842 17.1086
1896 1422565063 16.9441
1897 1422566284 16.5494
1898 1422567504 16.7666
1899 1422568725 16.5740
1900 1422569946 16.5341
1901 1422571166 16.5548
1902 1422572387 16.2786
1903 1422573608 16.0327
1904 1422574829 16.3950
1905 1422576049 16.1350
1906 1422577270 16.0052
1907 1422578491 15.6771
1908 1422579711 15.5142
1909 1422580932 15.9031
1910 1422582153 15.5502
1911 1422583374 15.3078
1912 1422584594 15.1302
1913 1422585815 15.0947
1914 1422587036 15.1781
1915 1422588256 15.0903
1916 1422589477 14.8242
1917 1422590698 14.8671
1918 1422591918 14.6583
1919 1422593139 14.5554
1920 1422594360 14.5549
1921 1422595581 14.6704
1922 1422596801 14.2097
1923 1422598022 14.1910
1924 1422599243 14.1283
1925 1422600463 13.8977
1926 1422601684 13.9241
1927 1422602905 13.8075
1928 1422604125 13.7935
1929 1422605346 13.8260
1930 1422606567 13.6399
1931 1422607788 13.6440
1932 1422609008 13.6013
1933 1422610229 13.1721
1934 1422611450 13.1260
1935 1422612670 13.2195
1936 1422613891 13.0529
1937 1422615112 12.9715
1938 1422616333 12.8046
1939 1422617553 12.8719
1940 1422618774 12.6171
1941 1422619995 12.4880
1942 1422621215 12.5896
1943 1422622436 12.5476
1944 1422623657 12.2675
1945 1422624877 12.3985
1946 1422626098 12.3366
1947 1422627319 12.1796
1948 1422628540 12.0787
1949 1422629760 12.1129
1950 1422630981 11.8732
1951 1422632202 11.8849
1952 1422633422 11.6547
1953 1422634643 11.7222
1954 1422635864 11.6333
1955 1422637084 11.5699
1956 1422638305 11.4910
1957 1422639526 11.2784
1958 1422640747 11.1242
1959 1422641967 11.2309
1960 1422643188 11.2414
1961 1422644409 11.1918
1962 1422645629 11.1102
1963 1422646850 11.0065
1964 1422648071 10.8156
1965 1422649291 10.9011
1966 1422650512 10.6392
1967 1422651733 10.6658
1968 1422652954 10.6601
1969 1422654174 10.5951
1970 1422655395 10.4945
1971 1422656616 10.3786
1972 1422657836 10.3246
1973 1422659057 10.3636
1974 1422660278 10.2703
1975 1422661499 10.1129
1976 1422662719 10.0315
1977 1422663940 9.9198
1978 1422665161 9.8792
1979 1422666381 10.0639
1980 1422667602 9.8210
1981 1422668823 9.7060
1982 1422670043 9.6612
1983 1422671264 9.7697
1984 1422672485 9.6878
1985 1422673706 9.6020
1986 1422674926 9.3818
1987 1422676147 9.5484
1988 1422677368 9.5020
1989 1422678588 9.3314
1990 1422679809 9.1486
1991 1422681030 9.2435
1992 1422682250 9.1691
1993 1422683471 9.2879
1994 1422684692 9.1315
1995 1422685913 9.2094
1996 1422687133 8.9945
1997 1422688354 8.9526
1998 1422689575 8.9771
1999 1422690795 8.9195
2000 1422692016 8.9275
2001 1422693237 8.8577
2002 1422694458 8.8843
2003 1422695678 8.6411
2004 1422696899 8.6238
2005 1422698120 8.7234
2006 1422699340 8.6835
2007 1422700561 8.9048
2008 1422701782 8.6373
2009 1422703002 8.3896
2010 1422704223 8.4350
2011 1422705444 8.4620
2012 1422706665 8.3866
2013 1422707885 8.3238
2014 1422709106 8.2819
2015 1422710327 8.2781
2016 1422711547 8.1668
2017 1422712768 8.1616
2018 1422713989 8.2091
2019 1422715209 8.1082
2020 1422716430 8.1115
2021 1422717651 8.0856
2022 1422718872 8.0297
2023 1422720092 7.8970
2024 1422721313 7.9807
2025 1422722534 8.0059
2026 1422723754 7.9524
2027 1422724975 7.9906
2028 1422726196 7.8838
2029 1422727416 7.9287
2030 1422728637 7.9208
2031 1422729858 7.9256
2032 1422731079 7.8136
2033 1422732299 7.8156
2034 1422733520 7.7993
2035 1422734741 7.9665
2036 1422735961 7.8780
2037 1422737182 7.7029
2038 1422738403 7.8769
2039 1422739624 7.6667
2040 1422740844 7.7683
2041 1422742065 7.7327
2042 1422743286 7.7760
2043 1422744506 7.6857
2044 1422745727 7.7637
2045 1422746948 7.7753
2046 1422748168 7.7129
2047 1422749389 8.1493
